function [t,h,s]=MethaneInterpHIsotermic
data=[
136.11	0.10000	0.090121	11.096	494.68	563.85	5.0108	1.5762	2.1345	302.98	19.028	5.4030e-06	0.014381	
137.00	0.10000	0.089502	11.173	496.10	565.75	5.0247	1.5756	2.1330	304.04	18.777	5.4372e-06	0.014486	
137.89	0.10000	0.088891	11.250	497.52	567.65	5.0386	1.5751	2.1317	305.10	18.532	5.4714e-06	0.014591	
138.78	0.10000	0.088289	11.326	498.94	569.55	5.0523	1.5746	2.1304	306.15	18.292	5.5056e-06	0.014696	
139.67	0.10000	0.087695	11.403	500.36	571.44	5.0659	1.5741	2.1291	307.20	18.059	5.5399e-06	0.014801	
140.56	0.10000	0.087110	11.480	501.78	573.34	5.0794	1.5736	2.1279	308.24	17.830	5.5741e-06	0.014906	
141.45	0.10000	0.086533	11.556	503.20	575.23	5.0929	1.5732	2.1267	309.28	17.607	5.6082e-06	0.015011	
142.34	0.10000	0.085964	11.633	504.61	577.13	5.1062	1.5727	2.1256	310.32	17.389	5.6424e-06	0.015116	
143.23	0.10000	0.085402	11.709	506.03	579.02	5.1195	1.5723	2.1245	311.35	17.176	5.6766e-06	0.015222	
144.12	0.10000	0.084849	11.786	507.45	580.91	5.1326	1.5720	2.1235	312.37	16.968	5.7107e-06	0.015327	
145.02	0.10000	0.084302	11.862	508.86	582.80	5.1457	1.5716	2.1225	313.39	16.764	5.7449e-06	0.015432	
145.91	0.10000	0.083763	11.938	510.27	584.69	5.1587	1.5713	2.1216	314.41	16.565	5.7790e-06	0.015538	
146.80	0.10000	0.083232	12.015	511.69	586.58	5.1716	1.5709	2.1206	315.43	16.370	5.8131e-06	0.015643	
147.69	0.10000	0.082707	12.091	513.10	588.47	5.1844	1.5706	2.1197	316.44	16.179	5.8472e-06	0.015749	
148.58	0.10000	0.082189	12.167	514.51	590.35	5.1972	1.5703	2.1189	317.44	15.992	5.8813e-06	0.015854	
149.47	0.10000	0.081677	12.243	515.92	592.24	5.2098	1.5701	2.1181	318.44	15.809	5.9154e-06	0.015959	
150.36	0.10000	0.081173	12.319	517.34	594.13	5.2224	1.5698	2.1173	319.44	15.629	5.9494e-06	0.016065	
151.25	0.10000	0.080674	12.396	518.75	596.01	5.2349	1.5696	2.1165	320.43	15.454	5.9835e-06	0.016170	
152.14	0.10000	0.080182	12.472	520.16	597.90	5.2473	1.5693	2.1158	321.42	15.282	6.0175e-06	0.016276	
153.03	0.10000	0.079697	12.548	521.57	599.78	5.2597	1.5691	2.1151	322.41	15.113	6.0515e-06	0.016381	
153.92	0.10000	0.079217	12.624	522.98	601.66	5.2719	1.5689	2.1144	323.39	14.947	6.0855e-06	0.016487	
154.81	0.10000	0.078743	12.700	524.39	603.55	5.2841	1.5687	2.1138	324.37	14.785	6.1194e-06	0.016592	
155.70	0.10000	0.078275	12.775	525.79	605.43	5.2963	1.5686	2.1131	325.35	14.626	6.1534e-06	0.016698	
156.59	0.10000	0.077813	12.851	527.20	607.31	5.3083	1.5684	2.1125	326.32	14.470	6.1873e-06	0.016803	
157.48	0.10000	0.077356	12.927	528.61	609.19	5.3203	1.5683	2.1120	327.29	14.317	6.2212e-06	0.016909	
158.37	0.10000	0.076905	13.003	530.02	611.07	5.3322	1.5681	2.1114	328.25	14.167	6.2551e-06	0.017014	
159.26	0.10000	0.076460	13.079	531.43	612.95	5.3440	1.5680	2.1109	329.21	14.019	6.2890e-06	0.017120	
160.15	0.10000	0.076019	13.155	532.83	614.83	5.3558	1.5679	2.1104	330.17	13.874	6.3228e-06	0.017225	
161.04	0.10000	0.075584	13.230	534.24	616.71	5.3675	1.5678	2.1099	331.13	13.732	6.3566e-06	0.017331	
161.93	0.10000	0.075154	13.306	535.65	618.59	5.3791	1.5677	2.1094	332.08	13.593	6.3904e-06	0.017436	
162.83	0.10000	0.074729	13.382	537.05	620.47	5.3907	1.5676	2.1090	333.03	13.455	6.4242e-06	0.017542	
163.72	0.10000	0.074309	13.457	538.46	622.34	5.4022	1.5676	2.1086	333.97	13.321	6.4579e-06	0.017647	
164.61	0.10000	0.073893	13.533	539.87	624.22	5.4136	1.5675	2.1082	334.91	13.188	6.4917e-06	0.017753	
165.50	0.10000	0.073483	13.609	541.27	626.10	5.4250	1.5675	2.1078	335.85	13.058	6.5254e-06	0.017859	
166.39	0.10000	0.073077	13.684	542.68	627.98	5.4363	1.5675	2.1074	336.79	12.930	6.5590e-06	0.017964	
167.28	0.10000	0.072676	13.760	544.08	629.85	5.4476	1.5674	2.1071	337.72	12.804	6.5927e-06	0.018070	
168.17	0.10000	0.072279	13.835	545.49	631.73	5.4588	1.5674	2.1067	338.65	12.681	6.6263e-06	0.018175	
169.06	0.10000	0.071886	13.911	546.89	633.60	5.4699	1.5674	2.1064	339.57	12.559	6.6599e-06	0.018281	
169.95	0.10000	0.071498	13.986	548.30	635.48	5.4809	1.5675	2.1061	340.50	12.439	6.6935e-06	0.018386	
170.84	0.10000	0.071115	14.062	549.70	637.35	5.4920	1.5675	2.1059	341.42	12.322	6.7271e-06	0.018492	
171.73	0.10000	0.070735	14.137	551.11	639.23	5.5029	1.5675	2.1056	342.33	12.206	6.7606e-06	0.018598	
172.62	0.10000	0.070360	14.213	552.51	641.11	5.5138	1.5676	2.1054	343.25	12.092	6.7941e-06	0.018703	
173.51	0.10000	0.069988	14.288	553.92	642.98	5.5246	1.5676	2.1052	344.16	11.980	6.8276e-06	0.018809	
174.40	0.10000	0.069621	14.364	555.32	644.85	5.5354	1.5677	2.1049	345.07	11.869	6.8610e-06	0.018915	
175.29	0.10000	0.069257	14.439	556.73	646.73	5.5461	1.5678	2.1048	345.97	11.760	6.8944e-06	0.019021	
176.18	0.10000	0.068898	14.514	558.13	648.60	5.5568	1.5679	2.1046	346.87	11.653	6.9278e-06	0.019126	
177.07	0.10000	0.068542	14.590	559.54	650.48	5.5674	1.5680	2.1044	347.77	11.548	6.9612e-06	0.019232	
177.96	0.10000	0.068190	14.665	560.94	652.35	5.5780	1.5681	2.1043	348.67	11.444	6.9945e-06	0.019338	
178.85	0.10000	0.067841	14.740	562.34	654.22	5.5885	1.5682	2.1042	349.56	11.342	7.0278e-06	0.019444	
179.75	0.10000	0.067497	14.816	563.75	656.10	5.5989	1.5683	2.1041	350.45	11.241	7.0611e-06	0.019550	
180.64	0.10000	0.067156	14.891	565.15	657.97	5.6093	1.5685	2.1040	351.34	11.142	7.0943e-06	0.019656	
181.53	0.10000	0.066818	14.966	566.56	659.85	5.6197	1.5686	2.1039	352.22	11.044	7.1275e-06	0.019763	
182.42	0.10000	0.066484	15.041	567.96	661.72	5.6299	1.5688	2.1039	353.11	10.947	7.1607e-06	0.019869	
183.31	0.10000	0.066153	15.117	569.37	663.59	5.6402	1.5690	2.1038	353.99	10.852	7.1939e-06	0.019975	
184.20	0.10000	0.065825	15.192	570.77	665.47	5.6504	1.5692	2.1038	354.86	10.758	7.2270e-06	0.020082	
185.09	0.10000	0.065501	15.267	572.18	667.34	5.6605	1.5694	2.1038	355.74	10.666	7.2601e-06	0.020189	
185.98	0.10000	0.065180	15.342	573.58	669.21	5.6706	1.5696	2.1038	356.61	10.575	7.2932e-06	0.020296	
186.87	0.10000	0.064862	15.417	574.99	671.09	5.6807	1.5698	2.1038	357.48	10.485	7.3262e-06	0.020403	
187.76	0.10000	0.064548	15.492	576.39	672.96	5.6907	1.5701	2.1038	358.34	10.396	7.3592e-06	0.020511	
188.65	0.10000	0.064236	15.568	577.80	674.83	5.7006	1.5703	2.1039	359.20	10.309	7.3922e-06	0.020620	
189.54	0.10000	0.063928	15.643	579.20	676.71	5.7105	1.5706	2.1039	360.07	10.223	7.4251e-06	0.020730	
190.43	0.10000	0.063622	15.718	580.61	678.58	5.7204	1.5708	2.1040	360.92	10.137	7.4580e-06	0.020844	
191.32	0.10000	0.063320	15.793	582.01	680.45	5.7302	1.5711	2.1041	361.78	10.053	7.4909e-06	0.020942	
192.21	0.10000	0.063020	15.868	583.42	682.33	5.7400	1.5714	2.1042	362.63	9.9705	7.5238e-06	0.021041	
193.10	0.10000	0.062723	15.943	584.82	684.20	5.7497	1.5717	2.1044	363.48	9.8887	7.5566e-06	0.021142	
193.99	0.10000	0.062429	16.018	586.23	686.08	5.7594	1.5720	2.1045	364.33	9.8080	7.5894e-06	0.021244	
194.88	0.10000	0.062138	16.093	587.64	687.95	5.7690	1.5724	2.1046	365.18	9.7283	7.6221e-06	0.021347	
195.77	0.10000	0.061850	16.168	589.04	689.82	5.7786	1.5727	2.1048	366.02	9.6496	7.6548e-06	0.021450	
196.66	0.10000	0.061564	16.243	590.45	691.70	5.7882	1.5731	2.1050	366.86	9.5718	7.6875e-06	0.021553	
197.56	0.10000	0.061281	16.318	591.86	693.57	5.7977	1.5734	2.1052	367.70	9.4951	7.7202e-06	0.021656	
198.45	0.10000	0.061001	16.393	593.26	695.45	5.8072	1.5738	2.1054	368.53	9.4193	7.7528e-06	0.021760	
199.34	0.10000	0.060723	16.468	594.67	697.32	5.8166	1.5742	2.1057	369.36	9.3445	7.7854e-06	0.021864	
200.23	0.10000	0.060448	16.543	596.08	699.20	5.8260	1.5746	2.1059	370.19	9.2705	7.8179e-06	0.021968	
201.12	0.10000	0.060175	16.618	597.49	701.07	5.8353	1.5750	2.1062	371.02	9.1975	7.8504e-06	0.022072	
202.01	0.10000	0.059905	16.693	598.90	702.95	5.8446	1.5754	2.1064	371.85	9.1254	7.8829e-06	0.022176	
202.90	0.10000	0.059637	16.768	600.31	704.83	5.8539	1.5759	2.1067	372.67	9.0541	7.9154e-06	0.022281	
203.79	0.10000	0.059372	16.843	601.71	706.70	5.8631	1.5763	2.1070	373.49	8.9836	7.9478e-06	0.022385	
204.68	0.10000	0.059109	16.918	603.12	708.58	5.8723	1.5768	2.1074	374.31	8.9140	7.9802e-06	0.022490	
205.57	0.10000	0.058849	16.993	604.53	710.46	5.8815	1.5773	2.1077	375.12	8.8452	8.0125e-06	0.022595	
206.46	0.10000	0.058590	17.068	605.94	712.33	5.8906	1.5778	2.1081	375.94	8.7772	8.0448e-06	0.022699	
207.35	0.10000	0.058334	17.143	607.35	714.21	5.8997	1.5783	2.1084	376.75	8.7100	8.0771e-06	0.022804	
208.24	0.10000	0.058081	17.217	608.77	716.09	5.9087	1.5788	2.1088	377.56	8.6436	8.1094e-06	0.022909	
209.13	0.10000	0.057829	17.292	610.18	717.97	5.9177	1.5793	2.1092	378.36	8.5779	8.1416e-06	0.023014	
210.02	0.10000	0.057580	17.367	611.59	719.84	5.9267	1.5799	2.1096	379.17	8.5130	8.1738e-06	0.023120	
210.91	0.10000	0.057333	17.442	613.00	721.72	5.9356	1.5804	2.1101	379.97	8.4487	8.2059e-06	0.023225	
211.80	0.10000	0.057088	17.517	614.41	723.60	5.9445	1.5810	2.1105	380.77	8.3852	8.2380e-06	0.023330	
212.69	0.10000	0.056845	17.592	615.83	725.48	5.9533	1.5816	2.1110	381.56	8.3224	8.2701e-06	0.023436	
213.58	0.10000	0.056604	17.667	617.24	727.36	5.9621	1.5822	2.1115	382.36	8.2603	8.3021e-06	0.023541	
214.47	0.10000	0.056365	17.741	618.65	729.24	5.9709	1.5828	2.1120	383.15	8.1989	8.3342e-06	0.023647	
215.37	0.10000	0.056129	17.816	620.07	731.12	5.9797	1.5834	2.1125	383.94	8.1382	8.3661e-06	0.023753	
216.26	0.10000	0.055894	17.891	621.48	733.00	5.9884	1.5841	2.1130	384.73	8.0780	8.3981e-06	0.023859	
217.15	0.10000	0.055661	17.966	622.90	734.89	5.9971	1.5847	2.1136	385.51	8.0186	8.4300e-06	0.023965	
218.04	0.10000	0.055431	18.041	624.32	736.77	6.0057	1.5854	2.1141	386.29	7.9598	8.4618e-06	0.024071	
218.93	0.10000	0.055202	18.115	625.73	738.65	6.0144	1.5861	2.1147	387.07	7.9015	8.4937e-06	0.024177	
219.82	0.10000	0.054975	18.190	627.15	740.54	6.0229	1.5868	2.1153	387.85	7.8439	8.5255e-06	0.024284	
220.71	0.10000	0.054750	18.265	628.57	742.42	6.0315	1.5875	2.1159	388.63	7.7869	8.5572e-06	0.024390	
221.60	0.10000	0.054527	18.340	629.99	744.30	6.0400	1.5882	2.1165	389.40	7.7305	8.5890e-06	0.024497	
222.49	0.10000	0.054305	18.414	631.41	746.19	6.0485	1.5890	2.1172	390.17	7.6747	8.6207e-06	0.024603	
223.38	0.10000	0.054086	18.489	632.83	748.07	6.0570	1.5897	2.1178	390.94	7.6195	8.6523e-06	0.024710	
224.27	0.10000	0.053868	18.564	634.25	749.96	6.0654	1.5905	2.1185	391.71	7.5648	8.6839e-06	0.024817	
225.16	0.10000	0.053652	18.639	635.67	751.85	6.0738	1.5913	2.1192	392.48	7.5106	8.7155e-06	0.024924	
226.05	0.10000	0.053438	18.713	637.09	753.74	6.0822	1.5921	2.1199	393.24	7.4570	8.7471e-06	0.025031	
226.94	0.10000	0.053225	18.788	638.51	755.62	6.0905	1.5929	2.1206	394.00	7.4040	8.7786e-06	0.025138	
227.83	0.10000	0.053015	18.863	639.93	757.51	6.0988	1.5938	2.1214	394.76	7.3514	8.8101e-06	0.025246	
228.72	0.10000	0.052805	18.937	641.36	759.40	6.1071	1.5946	2.1221	395.52	7.2994	8.8415e-06	0.025353	
229.61	0.10000	0.052598	19.012	642.78	761.29	6.1153	1.5955	2.1229	396.27	7.2479	8.8729e-06	0.025461	
230.50	0.10000	0.052392	19.087	644.21	763.18	6.1235	1.5964	2.1237	397.02	7.1969	8.9043e-06	0.025569	
231.39	0.10000	0.052188	19.162	645.63	765.07	6.1317	1.5973	2.1245	397.77	7.1464	8.9357e-06	0.025677	
232.29	0.10000	0.051985	19.236	647.06	766.97	6.1399	1.5982	2.1253	398.52	7.0964	8.9670e-06	0.025785	
233.18	0.10000	0.051784	19.311	648.49	768.86	6.1480	1.5991	2.1261	399.26	7.0468	8.9982e-06	0.025893	
234.07	0.10000	0.051585	19.386	649.92	770.75	6.1561	1.6000	2.1270	400.01	6.9978	9.0295e-06	0.026001	
234.96	0.10000	0.051387	19.460	651.35	772.65	6.1642	1.6010	2.1279	400.75	6.9492	9.0607e-06	0.026110	
235.85	0.10000	0.051191	19.535	652.78	774.54	6.1723	1.6020	2.1288	401.49	6.9010	9.0918e-06	0.026219	
236.74	0.10000	0.050996	19.609	654.21	776.44	6.1803	1.6029	2.1297	402.23	6.8533	9.1230e-06	0.026327	
237.63	0.10000	0.050802	19.684	655.64	778.34	6.1883	1.6039	2.1306	402.96	6.8061	9.1541e-06	0.026436	
238.52	0.10000	0.050610	19.759	657.07	780.23	6.1963	1.6050	2.1315	403.69	6.7592	9.1851e-06	0.026545	
239.41	0.10000	0.050420	19.833	658.50	782.13	6.2042	1.6060	2.1325	404.43	6.7129	9.2161e-06	0.026655	
240.30	0.10000	0.050231	19.908	659.94	784.03	6.2121	1.6070	2.1335	405.15	6.6669	9.2471e-06	0.026764	
241.19	0.10000	0.050043	19.983	661.37	785.93	6.2200	1.6081	2.1344	405.88	6.6214	9.2781e-06	0.026874	
242.08	0.10000	0.049857	20.057	662.81	787.83	6.2279	1.6092	2.1354	406.61	6.5763	9.3090e-06	0.026983	
242.97	0.10000	0.049673	20.132	664.25	789.73	6.2357	1.6103	2.1365	407.33	6.5315	9.3399e-06	0.027093	
243.86	0.10000	0.049489	20.206	665.68	791.64	6.2435	1.6114	2.1375	408.05	6.4872	9.3707e-06	0.027203	
244.75	0.10000	0.049307	20.281	667.12	793.54	6.2513	1.6125	2.1386	408.77	6.4433	9.4015e-06	0.027313	
245.64	0.10000	0.049126	20.356	668.56	795.45	6.2591	1.6137	2.1396	409.48	6.3998	9.4323e-06	0.027424	
246.53	0.10000	0.048947	20.430	670.00	797.35	6.2668	1.6148	2.1407	410.20	6.3567	9.4631e-06	0.027534	
247.42	0.10000	0.048769	20.505	671.45	799.26	6.2746	1.6160	2.1418	410.91	6.3139	9.4938e-06	0.027645	
248.31	0.10000	0.048592	20.579	672.89	801.17	6.2823	1.6172	2.1430	411.62	6.2715	9.5244e-06	0.027756	
249.20	0.10000	0.048417	20.654	674.33	803.08	6.2899	1.6184	2.1441	412.33	6.2295	9.5551e-06	0.027867	
250.10	0.10000	0.048243	20.729	675.78	804.99	6.2976	1.6196	2.1452	413.04	6.1879	9.5857e-06	0.027978	
250.99	0.10000	0.048070	20.803	677.22	806.90	6.3052	1.6208	2.1464	413.74	6.1466	9.6162e-06	0.028090	
251.88	0.10000	0.047898	20.878	678.67	808.81	6.3128	1.6221	2.1476	414.45	6.1057	9.6468e-06	0.028201	
252.77	0.10000	0.047728	20.952	680.12	810.72	6.3204	1.6234	2.1488	415.15	6.0651	9.6772e-06	0.028313	
253.66	0.10000	0.047558	21.027	681.57	812.64	6.3280	1.6247	2.1500	415.85	6.0249	9.7077e-06	0.028425	
254.55	0.10000	0.047390	21.101	683.02	814.55	6.3355	1.6260	2.1513	416.54	5.9850	9.7381e-06	0.028537	
255.44	0.10000	0.047224	21.176	684.47	816.47	6.3430	1.6273	2.1525	417.24	5.9454	9.7685e-06	0.028650	
256.33	0.10000	0.047058	21.250	685.92	818.38	6.3505	1.6286	2.1538	417.93	5.9062	9.7989e-06	0.028762	
257.22	0.10000	0.046894	21.325	687.38	820.30	6.3580	1.6300	2.1551	418.62	5.8673	9.8292e-06	0.028875	
258.11	0.10000	0.046730	21.399	688.83	822.22	6.3654	1.6313	2.1564	419.31	5.8288	9.8595e-06	0.028988	
259.00	0.10000	0.046568	21.474	690.29	824.14	6.3729	1.6327	2.1577	420.00	5.7905	9.8897e-06	0.029101	
259.89	0.10000	0.046407	21.548	691.75	826.07	6.3803	1.6341	2.1591	420.68	5.7526	9.9199e-06	0.029214	
260.78	0.10000	0.046247	21.623	693.21	827.99	6.3877	1.6355	2.1604	421.37	5.7150	9.9501e-06	0.029328	
261.67	0.10000	0.046088	21.698	694.67	829.91	6.3950	1.6369	2.1618	422.05	5.6777	9.9802e-06	0.029442	
262.56	0.10000	0.045931	21.772	696.13	831.84	6.4024	1.6384	2.1632	422.73	5.6407	1.0010e-05	0.029556	
263.45	0.10000	0.045774	21.847	697.59	833.77	6.4097	1.6398	2.1646	423.41	5.6040	1.0040e-05	0.029670	
264.34	0.10000	0.045618	21.921	699.05	835.69	6.4170	1.6413	2.1660	424.08	5.5676	1.0070e-05	0.029784	
265.23	0.10000	0.045464	21.996	700.52	837.62	6.4243	1.6428	2.1674	424.76	5.5315	1.0100e-05	0.029899	
266.12	0.10000	0.045310	22.070	701.99	839.55	6.4316	1.6443	2.1689	425.43	5.4957	1.0130e-05	0.030014	
267.02	0.10000	0.045158	22.144	703.45	841.49	6.4388	1.6458	2.1704	426.10	5.4602	1.0160e-05	0.030129	
267.91	0.10000	0.045007	22.219	704.92	843.42	6.4460	1.6474	2.1718	426.77	5.4250	1.0190e-05	0.030244	
268.80	0.10000	0.044856	22.293	706.39	845.35	6.4532	1.6489	2.1733	427.44	5.3900	1.0220e-05	0.030359	
269.69	0.10000	0.044707	22.368	707.86	847.29	6.4604	1.6505	2.1749	428.10	5.3554	1.0250e-05	0.030475	
270.58	0.10000	0.044558	22.442	709.34	849.23	6.4676	1.6521	2.1764	428.77	5.3210	1.0280e-05	0.030591	
271.47	0.10000	0.044411	22.517	710.81	851.17	6.4748	1.6537	2.1779	429.43	5.2869	1.0310e-05	0.030707	
272.36	0.10000	0.044265	22.591	712.29	853.11	6.4819	1.6553	2.1795	430.09	5.2530	1.0339e-05	0.030823	
273.25	0.10000	0.044119	22.666	713.77	855.05	6.4890	1.6569	2.1811	430.75	5.2194	1.0369e-05	0.030940	
274.14	0.10000	0.043975	22.740	715.24	856.99	6.4961	1.6586	2.1827	431.40	5.1861	1.0399e-05	0.031057	
275.03	0.10000	0.043831	22.815	716.72	858.94	6.5032	1.6602	2.1843	432.06	5.1530	1.0428e-05	0.031174	
275.92	0.10000	0.043689	22.889	718.21	860.88	6.5103	1.6619	2.1859	432.71	5.1202	1.0458e-05	0.031291	
276.81	0.10000	0.043547	22.964	719.69	862.83	6.5173	1.6636	2.1876	433.36	5.0877	1.0487e-05	0.031408	
277.70	0.10000	0.043406	23.038	721.17	864.78	6.5243	1.6653	2.1892	434.01	5.0554	1.0517e-05	0.031526	
278.59	0.10000	0.043267	23.113	722.66	866.73	6.5313	1.6670	2.1909	434.66	5.0233	1.0546e-05	0.031644	
279.48	0.10000	0.043128	23.187	724.15	868.68	6.5383	1.6688	2.1926	435.31	4.9915	1.0576e-05	0.031762	
280.37	0.10000	0.042990	23.261	725.64	870.63	6.5453	1.6705	2.1943	435.95	4.9600	1.0605e-05	0.031881	
281.26	0.10000	0.042853	23.336	727.13	872.59	6.5523	1.6723	2.1960	436.59	4.9287	1.0635e-05	0.031999	
282.15	0.10000	0.042716	23.410	728.62	874.55	6.5592	1.6741	2.1978	437.23	4.8976	1.0664e-05	0.032118	
283.04	0.10000	0.042581	23.485	730.12	876.50	6.5661	1.6759	2.1995	437.87	4.8668	1.0693e-05	0.032237	
283.93	0.10000	0.042446	23.559	731.61	878.46	6.5731	1.6777	2.2013	438.51	4.8362	1.0723e-05	0.032357	
284.83	0.10000	0.042313	23.634	733.11	880.42	6.5800	1.6795	2.2031	439.15	4.8058	1.0752e-05	0.032476	
285.72	0.10000	0.042180	23.708	734.61	882.39	6.5868	1.6813	2.2049	439.78	4.7756	1.0781e-05	0.032596	
286.61	0.10000	0.042048	23.782	736.11	884.35	6.5937	1.6832	2.2067	440.41	4.7457	1.0810e-05	0.032716	
287.50	0.10000	0.041917	23.857	737.61	886.32	6.6005	1.6851	2.2085	441.05	4.7160	1.0839e-05	0.032836	
288.39	0.10000	0.041786	23.931	739.11	888.28	6.6074	1.6869	2.2104	441.67	4.6866	1.0868e-05	0.032957	
289.28	0.10000	0.041657	24.006	740.62	890.25	6.6142	1.6888	2.2123	442.30	4.6573	1.0898e-05	0.033078	
290.17	0.10000	0.041528	24.080	742.13	892.22	6.6210	1.6908	2.2141	442.93	4.6283	1.0927e-05	0.033199	
291.06	0.10000	0.041400	24.154	743.63	894.20	6.6278	1.6927	2.2160	443.55	4.5995	1.0956e-05	0.033320	
291.95	0.10000	0.041273	24.229	745.14	896.17	6.6346	1.6946	2.2179	444.18	4.5709	1.0985e-05	0.033442	
292.84	0.10000	0.041147	24.303	746.66	898.15	6.6413	1.6966	2.2198	444.80	4.5425	1.1014e-05	0.033563	
293.73	0.10000	0.041021	24.378	748.17	900.12	6.6481	1.6986	2.2218	445.42	4.5143	1.1042e-05	0.033686	
294.62	0.10000	0.040896	24.452	749.69	902.10	6.6548	1.7005	2.2237	446.04	4.4863	1.1071e-05	0.033808	
295.51	0.10000	0.040772	24.526	751.20	904.08	6.6615	1.7025	2.2257	446.65	4.4585	1.1100e-05	0.033930	
296.40	0.10000	0.040649	24.601	752.72	906.07	6.6682	1.7046	2.2277	447.27	4.4310	1.1129e-05	0.034053	
297.29	0.10000	0.040527	24.675	754.24	908.05	6.6749	1.7066	2.2297	447.88	4.4036	1.1158e-05	0.034176	
298.18	0.10000	0.040405	24.750	755.77	910.04	6.6816	1.7086	2.2317	448.50	4.3765	1.1186e-05	0.034300	
299.07	0.10000	0.040284	24.824	757.29	912.03	6.6882	1.7107	2.2337	449.11	4.3495	1.1215e-05	0.034423	
299.96	0.10000	0.040163	24.898	758.82	914.02	6.6949	1.7128	2.2357	449.72	4.3227	1.1244e-05	0.034547	
300.85	0.10000	0.040044	24.973	760.35	916.01	6.7015	1.7148	2.2378	450.32	4.2961	1.1273e-05	0.034671	
301.74	0.10000	0.039925	25.047	761.88	918.00	6.7081	1.7169	2.2398	450.93	4.2698	1.1301e-05	0.034796	
302.64	0.10000	0.039807	25.121	763.41	920.00	6.7147	1.7190	2.2419	451.54	4.2436	1.1330e-05	0.034920	
303.53	0.10000	0.039689	25.196	764.94	922.00	6.7213	1.7212	2.2440	452.14	4.2176	1.1358e-05	0.035045	
304.42	0.10000	0.039572	25.270	766.48	923.99	6.7279	1.7233	2.2461	452.74	4.1918	1.1387e-05	0.035170	
305.31	0.10000	0.039456	25.345	768.02	926.00	6.7344	1.7255	2.2482	453.34	4.1661	1.1415e-05	0.035296	
306.20	0.10000	0.039341	25.419	769.55	928.00	6.7410	1.7276	2.2504	453.94	4.1407	1.1444e-05	0.035421	
307.09	0.10000	0.039226	25.493	771.10	930.00	6.7475	1.7298	2.2525	454.54	4.1154	1.1472e-05	0.035547	
307.98	0.10000	0.039112	25.568	772.64	932.01	6.7541	1.7320	2.2547	455.14	4.0903	1.1501e-05	0.035673	
308.87	0.10000	0.038999	25.642	774.18	934.02	6.7606	1.7342	2.2568	455.73	4.0654	1.1529e-05	0.035800	
