function [t,h,s]=MethaneIsobaric_200
data=[
96.037	20.000	28.489	0.035101	-65.098	-21.339	-0.64049	2.1820	3.2907	1621.3	-0.50056	0.00021655	0.22227	
96.928	20.000	28.424	0.035182	-62.268	-18.408	-0.61011	2.1773	3.2920	1614.5	-0.49938	0.00021110	0.22130	
97.818	20.000	28.358	0.035263	-59.437	-15.476	-0.58000	2.1726	3.2935	1607.8	-0.49817	0.00020587	0.22031	
98.709	20.000	28.293	0.035344	-56.605	-12.542	-0.55014	2.1680	3.2950	1601.0	-0.49692	0.00020085	0.21932	
99.599	20.000	28.227	0.035427	-53.772	-9.6073	-0.52054	2.1635	3.2965	1594.2	-0.49563	0.00019604	0.21832	
100.49	20.000	28.162	0.035509	-50.939	-6.6709	-0.49119	2.1591	3.2982	1587.4	-0.49431	0.00019142	0.21730	
101.38	20.000	28.096	0.035592	-48.105	-3.7331	-0.46209	2.1547	3.2999	1580.5	-0.49296	0.00018699	0.21628	
102.27	20.000	28.030	0.035676	-45.270	-0.79380	-0.43322	2.1504	3.3016	1573.7	-0.49158	0.00018272	0.21526	
103.16	20.000	27.964	0.035760	-42.434	2.1471	-0.40459	2.1461	3.3034	1566.8	-0.49016	0.00017861	0.21422	
104.05	20.000	27.898	0.035845	-39.597	5.0896	-0.37619	2.1419	3.3052	1560.0	-0.48872	0.00017466	0.21318	
104.94	20.000	27.832	0.035930	-36.759	8.0338	-0.34801	2.1377	3.3071	1553.1	-0.48724	0.00017086	0.21213	
105.83	20.000	27.765	0.036016	-33.920	10.980	-0.32006	2.1336	3.3090	1546.2	-0.48572	0.00016719	0.21108	
106.72	20.000	27.699	0.036102	-31.081	13.927	-0.29233	2.1295	3.3109	1539.3	-0.48418	0.00016365	0.21002	
107.61	20.000	27.632	0.036189	-28.240	16.876	-0.26481	2.1254	3.3129	1532.4	-0.48261	0.00016024	0.20896	
108.50	20.000	27.566	0.036277	-25.398	19.827	-0.23750	2.1214	3.3148	1525.4	-0.48100	0.00015695	0.20789	
109.39	20.000	27.499	0.036365	-22.555	22.780	-0.21040	2.1174	3.3169	1518.5	-0.47936	0.00015377	0.20682	
110.29	20.000	27.432	0.036454	-19.711	25.735	-0.18350	2.1134	3.3189	1511.6	-0.47768	0.00015070	0.20574	
111.18	20.000	27.365	0.036543	-16.866	28.691	-0.15680	2.1094	3.3210	1504.6	-0.47598	0.00014773	0.20466	
112.07	20.000	27.298	0.036633	-14.019	31.649	-0.13029	2.1055	3.3231	1497.7	-0.47424	0.00014485	0.20358	
112.96	20.000	27.231	0.036723	-11.172	34.610	-0.10398	2.1016	3.3252	1490.7	-0.47246	0.00014207	0.20250	
113.85	20.000	27.163	0.036814	-8.3235	37.572	-0.077863	2.0978	3.3274	1483.8	-0.47065	0.00013938	0.20141	
114.74	20.000	27.096	0.036906	-5.4739	40.536	-0.051930	2.0939	3.3295	1476.8	-0.46880	0.00013678	0.20032	
115.63	20.000	27.028	0.036999	-2.6232	43.502	-0.026180	2.0901	3.3317	1469.9	-0.46692	0.00013426	0.19922	
116.52	20.000	26.960	0.037092	0.22875	46.470	-0.00061019	2.0863	3.3340	1462.9	-0.46500	0.00013181	0.19813	
117.41	20.000	26.892	0.037185	3.0818	49.440	0.024782	2.0826	3.3362	1455.9	-0.46304	0.00012944	0.19703	
118.30	20.000	26.824	0.037280	5.9361	52.412	0.049999	2.0788	3.3385	1449.0	-0.46104	0.00012714	0.19594	
119.19	20.000	26.756	0.037375	8.7916	55.386	0.075045	2.0751	3.3409	1442.0	-0.45900	0.00012490	0.19484	
120.08	20.000	26.688	0.037471	11.648	58.362	0.099921	2.0714	3.3432	1435.0	-0.45693	0.00012273	0.19374	
120.97	20.000	26.619	0.037567	14.506	61.340	0.12463	2.0677	3.3456	1428.0	-0.45481	0.00012063	0.19264	
121.86	20.000	26.550	0.037664	17.365	64.320	0.14918	2.0641	3.3480	1421.1	-0.45264	0.00011858	0.19154	
122.75	20.000	26.481	0.037762	20.226	67.303	0.17356	2.0605	3.3505	1414.1	-0.45044	0.00011660	0.19044	
123.64	20.000	26.412	0.037861	23.088	70.288	0.19779	2.0569	3.3530	1407.1	-0.44819	0.00011466	0.18934	
124.53	20.000	26.343	0.037960	25.951	73.274	0.22186	2.0533	3.3555	1400.1	-0.44590	0.00011278	0.18824	
125.42	20.000	26.274	0.038061	28.815	76.264	0.24578	2.0497	3.3580	1393.2	-0.44356	0.00011095	0.18715	
126.31	20.000	26.204	0.038162	31.681	79.255	0.26955	2.0462	3.3606	1386.2	-0.44117	0.00010918	0.18605	
127.21	20.000	26.135	0.038263	34.548	82.249	0.29317	2.0427	3.3633	1379.2	-0.43874	0.00010744	0.18495	
128.10	20.000	26.065	0.038366	37.416	85.245	0.31664	2.0392	3.3660	1372.2	-0.43626	0.00010576	0.18385	
128.99	20.000	25.995	0.038469	40.286	88.244	0.33997	2.0357	3.3687	1365.3	-0.43372	0.00010411	0.18276	
129.88	20.000	25.925	0.038573	43.157	91.245	0.36315	2.0323	3.3714	1358.3	-0.43114	0.00010251	0.18167	
130.77	20.000	25.854	0.038678	46.030	94.249	0.38620	2.0289	3.3743	1351.3	-0.42850	0.00010095	0.18057	
131.66	20.000	25.784	0.038784	48.904	97.255	0.40911	2.0255	3.3771	1344.3	-0.42581	9.9428e-05	0.17948	
132.55	20.000	25.713	0.038891	51.779	100.26	0.43189	2.0222	3.3800	1337.4	-0.42307	9.7943e-05	0.17839	
133.44	20.000	25.642	0.038999	54.656	103.27	0.45453	2.0188	3.3830	1330.4	-0.42027	9.6495e-05	0.17731	
134.33	20.000	25.571	0.039107	57.535	106.29	0.47704	2.0155	3.3860	1323.4	-0.41741	9.5082e-05	0.17622	
135.22	20.000	25.499	0.039216	60.415	109.31	0.49942	2.0122	3.3890	1316.5	-0.41450	9.3702e-05	0.17514	
136.11	20.000	25.428	0.039327	63.297	112.32	0.52168	2.0090	3.3921	1309.5	-0.41153	9.2355e-05	0.17406	
137.00	20.000	25.356	0.039438	66.180	115.35	0.54381	2.0058	3.3953	1302.6	-0.40849	9.1040e-05	0.17298	
137.89	20.000	25.284	0.039550	69.066	118.37	0.56582	2.0025	3.3985	1295.6	-0.40540	8.9754e-05	0.17190	
138.78	20.000	25.212	0.039663	71.952	121.40	0.58771	1.9994	3.4018	1288.7	-0.40224	8.8499e-05	0.17083	
139.67	20.000	25.140	0.039778	74.841	124.43	0.60947	1.9962	3.4051	1281.7	-0.39901	8.7271e-05	0.16976	
140.56	20.000	25.067	0.039893	77.731	127.46	0.63113	1.9931	3.4085	1274.8	-0.39572	8.6071e-05	0.16869	
141.45	20.000	24.994	0.040009	80.623	130.50	0.65266	1.9900	3.4119	1267.8	-0.39236	8.4897e-05	0.16762	
142.34	20.000	24.921	0.040126	83.517	133.54	0.67409	1.9869	3.4155	1260.9	-0.38894	8.3749e-05	0.16656	
143.23	20.000	24.848	0.040244	86.413	136.58	0.69540	1.9839	3.4190	1253.9	-0.38544	8.2626e-05	0.16550	
144.12	20.000	24.775	0.040364	89.310	139.63	0.71660	1.9809	3.4227	1247.0	-0.38188	8.1527e-05	0.16444	
145.02	20.000	24.701	0.040484	92.210	142.68	0.73769	1.9779	3.4264	1240.1	-0.37824	8.0451e-05	0.16339	
145.91	20.000	24.627	0.040605	95.111	145.73	0.75868	1.9749	3.4301	1233.2	-0.37452	7.9398e-05	0.16234	
146.80	20.000	24.553	0.040728	98.015	148.79	0.77956	1.9720	3.4340	1226.3	-0.37073	7.8367e-05	0.16129	
147.69	20.000	24.479	0.040852	100.92	151.85	0.80035	1.9691	3.4379	1219.3	-0.36686	7.7356e-05	0.16025	
148.58	20.000	24.404	0.040977	103.83	154.91	0.82102	1.9662	3.4419	1212.4	-0.36291	7.6366e-05	0.15921	
149.47	20.000	24.329	0.041103	106.74	157.98	0.84160	1.9634	3.4459	1205.5	-0.35888	7.5396e-05	0.15817	
150.36	20.000	24.254	0.041230	109.65	161.05	0.86209	1.9606	3.4500	1198.6	-0.35477	7.4446e-05	0.15713	
151.25	20.000	24.179	0.041359	112.56	164.12	0.88247	1.9578	3.4542	1191.7	-0.35057	7.3514e-05	0.15610	
152.14	20.000	24.103	0.041488	115.48	167.20	0.90276	1.9550	3.4585	1184.8	-0.34629	7.2600e-05	0.15508	
153.03	20.000	24.027	0.041619	118.40	170.28	0.92296	1.9523	3.4629	1178.0	-0.34192	7.1704e-05	0.15406	
153.92	20.000	23.951	0.041752	121.32	173.37	0.94306	1.9496	3.4673	1171.1	-0.33746	7.0825e-05	0.15304	
154.81	20.000	23.875	0.041885	124.24	176.46	0.96308	1.9469	3.4718	1164.2	-0.33291	6.9962e-05	0.15202	
155.70	20.000	23.798	0.042020	127.17	179.55	0.98301	1.9443	3.4764	1157.4	-0.32827	6.9116e-05	0.15101	
156.59	20.000	23.721	0.042156	130.09	182.65	1.0028	1.9417	3.4811	1150.5	-0.32353	6.8285e-05	0.15000	
157.48	20.000	23.644	0.042294	133.03	185.75	1.0226	1.9391	3.4858	1143.6	-0.31869	6.7469e-05	0.14900	
158.37	20.000	23.566	0.042433	135.96	188.86	1.0423	1.9365	3.4907	1136.8	-0.31376	6.6669e-05	0.14800	
159.26	20.000	23.489	0.042574	138.89	191.97	1.0619	1.9340	3.4956	1130.0	-0.30872	6.5882e-05	0.14700	
160.15	20.000	23.411	0.042716	141.83	195.08	1.0814	1.9315	3.5006	1123.1	-0.30358	6.5110e-05	0.14601	
161.04	20.000	23.332	0.042859	144.77	198.20	1.1008	1.9291	3.5057	1116.3	-0.29833	6.4351e-05	0.14503	
161.93	20.000	23.254	0.043004	147.72	201.33	1.1201	1.9267	3.5109	1109.5	-0.29298	6.3605e-05	0.14404	
162.83	20.000	23.175	0.043151	150.66	204.46	1.1394	1.9243	3.5162	1102.7	-0.28752	6.2873e-05	0.14307	
163.72	20.000	23.095	0.043299	153.61	207.59	1.1586	1.9219	3.5216	1095.9	-0.28194	6.2153e-05	0.14209	
164.61	20.000	23.016	0.043448	156.56	210.73	1.1777	1.9196	3.5271	1089.1	-0.27626	6.1445e-05	0.14112	
165.50	20.000	22.936	0.043600	159.52	213.87	1.1968	1.9173	3.5326	1082.3	-0.27045	6.0748e-05	0.14016	
166.39	20.000	22.856	0.043753	162.48	217.02	1.2157	1.9150	3.5383	1075.6	-0.26453	6.0064e-05	0.13919	
167.28	20.000	22.775	0.043907	165.44	220.17	1.2346	1.9127	3.5440	1068.8	-0.25849	5.9391e-05	0.13824	
168.17	20.000	22.694	0.044064	168.40	223.33	1.2535	1.9105	3.5499	1062.1	-0.25232	5.8728e-05	0.13729	
169.06	20.000	22.613	0.044222	171.37	226.50	1.2722	1.9084	3.5558	1055.3	-0.24603	5.8077e-05	0.13634	
169.95	20.000	22.532	0.044382	174.34	229.67	1.2909	1.9062	3.5619	1048.6	-0.23961	5.7436e-05	0.13540	
170.84	20.000	22.450	0.044543	177.31	232.84	1.3096	1.9041	3.5680	1041.9	-0.23306	5.6804e-05	0.13446	
171.73	20.000	22.368	0.044707	180.29	236.02	1.3281	1.9020	3.5743	1035.2	-0.22638	5.6183e-05	0.13352	
172.62	20.000	22.285	0.044873	183.27	239.21	1.3466	1.9000	3.5806	1028.5	-0.21956	5.5572e-05	0.13259	
173.51	20.000	22.203	0.045040	186.25	242.40	1.3651	1.8980	3.5871	1021.8	-0.21260	5.4970e-05	0.13167	
174.40	20.000	22.119	0.045209	189.23	245.59	1.3834	1.8960	3.5936	1015.1	-0.20550	5.4377e-05	0.13075	
175.29	20.000	22.036	0.045381	192.22	248.80	1.4018	1.8940	3.6002	1008.5	-0.19826	5.3793e-05	0.12984	
176.18	20.000	21.952	0.045554	195.22	252.01	1.4200	1.8921	3.6070	1001.8	-0.19088	5.3218e-05	0.12893	
177.07	20.000	21.868	0.045729	198.21	255.22	1.4382	1.8902	3.6139	995.21	-0.18334	5.2651e-05	0.12802	
177.96	20.000	21.783	0.045907	201.21	258.44	1.4564	1.8884	3.6208	988.60	-0.17566	5.2093e-05	0.12713	
178.85	20.000	21.698	0.046087	204.22	261.67	1.4745	1.8866	3.6279	982.01	-0.16782	5.1543e-05	0.12623	
179.75	20.000	21.613	0.046269	207.22	264.90	1.4925	1.8848	3.6350	975.43	-0.15982	5.1001e-05	0.12534	
180.64	20.000	21.527	0.046453	210.23	268.14	1.5105	1.8830	3.6423	968.86	-0.15167	5.0467e-05	0.12446	
181.53	20.000	21.441	0.046639	213.25	271.39	1.5284	1.8813	3.6497	962.32	-0.14335	4.9940e-05	0.12358	
182.42	20.000	21.355	0.046828	216.27	274.64	1.5463	1.8796	3.6572	955.79	-0.13486	4.9421e-05	0.12271	
183.31	20.000	21.268	0.047019	219.29	277.91	1.5641	1.8780	3.6647	949.28	-0.12621	4.8909e-05	0.12185	
184.20	20.000	21.181	0.047213	222.31	281.17	1.5819	1.8763	3.6724	942.79	-0.11739	4.8404e-05	0.12099	
185.09	20.000	21.093	0.047409	225.34	284.45	1.5996	1.8747	3.6802	936.32	-0.10839	4.7906e-05	0.12014	
185.98	20.000	21.005	0.047608	228.38	287.73	1.6173	1.8732	3.6881	929.87	-0.099223	4.7415e-05	0.11929	
186.87	20.000	20.917	0.047809	231.41	291.01	1.6349	1.8717	3.6961	923.44	-0.089872	4.6931e-05	0.11845	
187.76	20.000	20.828	0.048012	234.45	294.31	1.6525	1.8702	3.7041	917.03	-0.080339	4.6453e-05	0.11762	
188.65	20.000	20.739	0.048219	237.50	297.61	1.6701	1.8687	3.7123	910.64	-0.070621	4.5982e-05	0.11680	
189.54	20.000	20.649	0.048428	240.55	300.92	1.6876	1.8673	3.7206	904.28	-0.060716	4.5517e-05	0.11599	
190.43	20.000	20.559	0.048640	243.60	304.24	1.7050	1.8659	3.7290	897.94	-0.050621	4.5058e-05	0.11521	
191.32	20.000	20.469	0.048855	246.66	307.56	1.7225	1.8645	3.7374	891.63	-0.040333	4.4605e-05	0.11437	
192.21	20.000	20.378	0.049072	249.72	310.89	1.7398	1.8632	3.7460	885.34	-0.029849	4.4158e-05	0.11354	
193.10	20.000	20.287	0.049293	252.78	314.23	1.7572	1.8619	3.7546	879.08	-0.019167	4.3716e-05	0.11271	
193.99	20.000	20.195	0.049516	255.85	317.58	1.7745	1.8607	3.7633	872.85	-0.0082848	4.3281e-05	0.11190	
194.88	20.000	20.103	0.049743	258.92	320.94	1.7917	1.8594	3.7721	866.64	0.0028008	4.2851e-05	0.11109	
195.77	20.000	20.011	0.049972	262.00	324.30	1.8089	1.8582	3.7810	860.46	0.014092	4.2427e-05	0.11029	
196.66	20.000	19.918	0.050205	265.08	327.67	1.8261	1.8571	3.7900	854.32	0.025591	4.2008e-05	0.10949	
197.56	20.000	19.825	0.050441	268.17	331.05	1.8433	1.8559	3.7990	848.20	0.037300	4.1594e-05	0.10871	
198.45	20.000	19.731	0.050680	271.26	334.44	1.8604	1.8548	3.8081	842.12	0.049222	4.1185e-05	0.10792	
199.34	20.000	19.637	0.050923	274.35	337.83	1.8774	1.8538	3.8173	836.06	0.061358	4.0782e-05	0.10715	
200.23	20.000	19.543	0.051169	277.45	341.24	1.8945	1.8527	3.8265	830.05	0.073710	4.0384e-05	0.10638	
201.12	20.000	19.448	0.051418	280.55	344.65	1.9115	1.8517	3.8358	824.06	0.086280	3.9990e-05	0.10561	
202.01	20.000	19.353	0.051671	283.65	348.07	1.9284	1.8508	3.8451	818.12	0.099070	3.9602e-05	0.10486	
202.90	20.000	19.257	0.051928	286.76	351.50	1.9454	1.8498	3.8545	812.21	0.11208	3.9218e-05	0.10410	
203.79	20.000	19.161	0.052188	289.87	354.93	1.9623	1.8489	3.8639	806.34	0.12531	3.8840e-05	0.10336	
204.68	20.000	19.065	0.052452	292.99	358.38	1.9791	1.8480	3.8733	800.50	0.13877	3.8465e-05	0.10262	
205.57	20.000	18.968	0.052720	296.11	361.83	1.9960	1.8472	3.8828	794.71	0.15245	3.8096e-05	0.10188	
206.46	20.000	18.871	0.052991	299.23	365.29	2.0128	1.8464	3.8922	788.96	0.16636	3.7731e-05	0.10116	
207.35	20.000	18.774	0.053266	302.36	368.76	2.0296	1.8456	3.9017	783.25	0.18049	3.7370e-05	0.10044	
208.24	20.000	18.676	0.053546	305.49	372.24	2.0463	1.8448	3.9112	777.59	0.19485	3.7014e-05	0.099723	
209.13	20.000	18.577	0.053829	308.62	375.73	2.0630	1.8441	3.9206	771.97	0.20944	3.6663e-05	0.099015	
210.02	20.000	18.479	0.054116	311.76	379.22	2.0797	1.8434	3.9301	766.39	0.22425	3.6315e-05	0.098313	
210.91	20.000	18.380	0.054408	314.90	382.73	2.0963	1.8427	3.9395	760.86	0.23929	3.5972e-05	0.097618	
211.80	20.000	18.280	0.054703	318.04	386.24	2.1130	1.8420	3.9489	755.39	0.25455	3.5634e-05	0.096930	
212.69	20.000	18.181	0.055003	321.19	389.76	2.1295	1.8414	3.9582	749.96	0.27004	3.5299e-05	0.096248	
213.58	20.000	18.081	0.055308	324.34	393.29	2.1461	1.8408	3.9675	744.58	0.28575	3.4969e-05	0.095573	
214.47	20.000	17.980	0.055616	327.49	396.83	2.1626	1.8403	3.9767	739.25	0.30168	3.4643e-05	0.094904	
215.37	20.000	17.880	0.055929	330.65	400.37	2.1791	1.8397	3.9858	733.97	0.31783	3.4321e-05	0.094243	
216.26	20.000	17.779	0.056247	333.81	403.93	2.1956	1.8392	3.9948	728.75	0.33419	3.4003e-05	0.093588	
217.15	20.000	17.678	0.056569	336.97	407.49	2.2120	1.8387	4.0038	723.59	0.35077	3.3689e-05	0.092941	
218.04	20.000	17.576	0.056896	340.13	411.06	2.2284	1.8383	4.0126	718.48	0.36756	3.3379e-05	0.092300	
218.93	20.000	17.474	0.057227	343.29	414.63	2.2448	1.8378	4.0212	713.43	0.38455	3.3073e-05	0.091666	
219.82	20.000	17.372	0.057563	346.46	418.22	2.2611	1.8374	4.0298	708.43	0.40175	3.2771e-05	0.091039	
220.71	20.000	17.270	0.057904	349.62	421.81	2.2774	1.8370	4.0381	703.50	0.41914	3.2472e-05	0.090420	
221.60	20.000	17.168	0.058249	352.79	425.41	2.2937	1.8366	4.0463	698.63	0.43672	3.2178e-05	0.089808	
222.49	20.000	17.065	0.058600	355.96	429.02	2.3100	1.8363	4.0543	693.82	0.45449	3.1888e-05	0.089202	
223.38	20.000	16.962	0.058955	359.13	432.63	2.3262	1.8360	4.0621	689.07	0.47244	3.1602e-05	0.088605	
224.27	20.000	16.859	0.059315	362.31	436.25	2.3424	1.8356	4.0697	684.38	0.49057	3.1319e-05	0.088014	
225.16	20.000	16.756	0.059680	365.48	439.88	2.3585	1.8354	4.0770	679.77	0.50885	3.1040e-05	0.087431	
226.05	20.000	16.653	0.060051	368.65	443.51	2.3746	1.8351	4.0841	675.21	0.52730	3.0766e-05	0.086855	
226.94	20.000	16.549	0.060426	371.82	447.15	2.3907	1.8348	4.0909	670.73	0.54589	3.0494e-05	0.086286	
227.83	20.000	16.446	0.060806	374.99	450.80	2.4067	1.8346	4.0974	666.31	0.56463	3.0227e-05	0.085725	
228.72	20.000	16.342	0.061191	378.17	454.45	2.4227	1.8344	4.1036	661.97	0.58349	2.9964e-05	0.085172	
229.61	20.000	16.239	0.061582	381.34	458.11	2.4387	1.8342	4.1095	657.69	0.60247	2.9704e-05	0.084626	
230.50	20.000	16.135	0.061977	384.50	461.77	2.4546	1.8340	4.1150	653.48	0.62156	2.9448e-05	0.084087	
231.39	20.000	16.031	0.062378	387.67	465.44	2.4705	1.8339	4.1202	649.35	0.64074	2.9196e-05	0.083556	
232.29	20.000	15.928	0.062783	390.84	469.11	2.4863	1.8337	4.1251	645.29	0.66001	2.8948e-05	0.083033	
233.18	20.000	15.824	0.063194	394.00	472.78	2.5021	1.8336	4.1295	641.30	0.67935	2.8703e-05	0.082517	
234.07	20.000	15.721	0.063610	397.16	476.46	2.5178	1.8335	4.1336	637.39	0.69875	2.8462e-05	0.082009	
234.96	20.000	15.618	0.064030	400.32	480.14	2.5335	1.8334	4.1372	633.55	0.71820	2.8225e-05	0.081508	
235.85	20.000	15.514	0.064456	403.48	483.83	2.5492	1.8333	4.1405	629.79	0.73767	2.7991e-05	0.081014	
236.74	20.000	15.411	0.064887	406.63	487.52	2.5648	1.8332	4.1433	626.11	0.75716	2.7762e-05	0.080528	
237.63	20.000	15.309	0.065323	409.77	491.21	2.5804	1.8332	4.1456	622.50	0.77666	2.7536e-05	0.080050	
238.52	20.000	15.206	0.065764	412.92	494.90	2.5959	1.8331	4.1475	618.97	0.79615	2.7313e-05	0.079579	
239.41	20.000	15.104	0.066210	416.06	498.60	2.6113	1.8331	4.1489	615.52	0.81560	2.7095e-05	0.079116	
240.30	20.000	15.001	0.066660	419.19	502.29	2.6267	1.8331	4.1499	612.15	0.83502	2.6880e-05	0.078660	
241.19	20.000	14.900	0.067116	422.32	505.99	2.6421	1.8331	4.1504	608.85	0.85439	2.6668e-05	0.078211	
242.08	20.000	14.798	0.067576	425.44	509.68	2.6574	1.8331	4.1504	605.63	0.87368	2.6461e-05	0.077770	
242.97	20.000	14.697	0.068041	428.56	513.38	2.6726	1.8331	4.1499	602.49	0.89289	2.6257e-05	0.077336	
243.86	20.000	14.596	0.068510	431.66	517.07	2.6878	1.8332	4.1490	599.43	0.91200	2.6056e-05	0.076910	
244.75	20.000	14.496	0.068985	434.77	520.77	2.7029	1.8332	4.1475	596.45	0.93100	2.5860e-05	0.076490	
245.64	20.000	14.396	0.069463	437.86	524.46	2.7180	1.8332	4.1456	593.55	0.94987	2.5666e-05	0.076078	
246.53	20.000	14.297	0.069946	440.95	528.15	2.7330	1.8333	4.1432	590.72	0.96861	2.5477e-05	0.075673	
247.42	20.000	14.198	0.070434	444.03	531.84	2.7479	1.8334	4.1403	587.97	0.98719	2.5291e-05	0.075274	
248.31	20.000	14.099	0.070925	447.11	535.53	2.7628	1.8335	4.1369	585.29	1.0056	2.5108e-05	0.074883	
249.20	20.000	14.002	0.071421	450.17	539.21	2.7776	1.8335	4.1331	582.70	1.0238	2.4929e-05	0.074499	
250.10	20.000	13.904	0.071921	453.23	542.89	2.7923	1.8336	4.1288	580.17	1.0419	2.4753e-05	0.074122	
250.99	20.000	13.807	0.072424	456.27	546.56	2.8070	1.8337	4.1241	577.73	1.0597	2.4581e-05	0.073751	
251.88	20.000	13.711	0.072932	459.31	550.23	2.8216	1.8339	4.1190	575.35	1.0774	2.4413e-05	0.073387	
252.77	20.000	13.616	0.073444	462.34	553.90	2.8361	1.8340	4.1134	573.05	1.0948	2.4247e-05	0.073030	
253.66	20.000	13.521	0.073959	465.36	557.56	2.8506	1.8341	4.1074	570.82	1.1120	2.4085e-05	0.072679	
254.55	20.000	13.427	0.074477	468.36	561.21	2.8650	1.8343	4.1009	568.66	1.1289	2.3927e-05	0.072335	
255.44	20.000	13.333	0.074999	471.36	564.86	2.8793	1.8344	4.0941	566.57	1.1456	2.3771e-05	0.071997	
256.33	20.000	13.241	0.075525	474.35	568.50	2.8935	1.8346	4.0870	564.55	1.1621	2.3619e-05	0.071666	
257.22	20.000	13.149	0.076054	477.33	572.14	2.9077	1.8347	4.0794	562.60	1.1783	2.3470e-05	0.071340	
258.11	20.000	13.057	0.076585	480.29	575.77	2.9217	1.8349	4.0715	560.71	1.1942	2.3324e-05	0.071021	
259.00	20.000	12.967	0.077120	483.25	579.39	2.9358	1.8351	4.0633	558.89	1.2098	2.3182e-05	0.070708	
259.89	20.000	12.877	0.077658	486.19	583.01	2.9497	1.8353	4.0547	557.13	1.2251	2.3042e-05	0.070401	
260.78	20.000	12.788	0.078198	489.13	586.61	2.9635	1.8355	4.0458	555.44	1.2402	2.2906e-05	0.070100	
261.67	20.000	12.700	0.078742	492.05	590.21	2.9773	1.8357	4.0367	553.81	1.2549	2.2772e-05	0.069805	
262.56	20.000	12.612	0.079288	494.96	593.80	2.9910	1.8359	4.0272	552.23	1.2694	2.2642e-05	0.069516	
263.45	20.000	12.526	0.079836	497.86	597.38	3.0046	1.8361	4.0175	550.72	1.2835	2.2514e-05	0.069232	
264.34	20.000	12.440	0.080386	500.74	600.96	3.0182	1.8364	4.0076	549.26	1.2973	2.2390e-05	0.068954	
265.23	20.000	12.355	0.080939	503.62	604.52	3.0316	1.8366	3.9974	547.86	1.3108	2.2268e-05	0.068682	
266.12	20.000	12.271	0.081494	506.48	608.08	3.0450	1.8369	3.9870	546.51	1.3240	2.2149e-05	0.068415	
267.02	20.000	12.187	0.082051	509.33	611.62	3.0583	1.8371	3.9764	545.22	1.3369	2.2033e-05	0.068153	
267.91	20.000	12.105	0.082610	512.17	615.16	3.0715	1.8374	3.9656	543.98	1.3494	2.1919e-05	0.067897	
