function [t,s,h]=R134aisop_044497
data=[
169.85	0.44497	15.599	0.064105	71.376	71.656	0.41215	0.79234	1.1835	1121.6	-0.38177	0.0021696	0.14538	
170.33	0.44497	15.587	0.064156	71.938	72.218	0.41546	0.79215	1.1835	1119.2	-0.38148	0.0021257	0.14509	
170.80	0.44497	15.575	0.064206	72.501	72.781	0.41876	0.79197	1.1835	1116.8	-0.38118	0.0020834	0.14480	
171.28	0.44497	15.563	0.064257	73.063	73.343	0.42205	0.79181	1.1836	1114.4	-0.38087	0.0020427	0.14451	
171.75	0.44497	15.550	0.064307	73.625	73.906	0.42533	0.79167	1.1836	1112.0	-0.38056	0.0020033	0.14422	
172.23	0.44497	15.538	0.064358	74.188	74.468	0.42860	0.79154	1.1837	1109.5	-0.38024	0.0019653	0.14393	
172.70	0.44497	15.526	0.064409	74.750	75.031	0.43186	0.79143	1.1838	1107.1	-0.37991	0.0019286	0.14364	
173.18	0.44497	15.513	0.064460	75.312	75.593	0.43511	0.79133	1.1839	1104.7	-0.37958	0.0018931	0.14335	
173.65	0.44497	15.501	0.064511	75.875	76.156	0.43836	0.79125	1.1840	1102.3	-0.37924	0.0018588	0.14306	
174.13	0.44497	15.489	0.064562	76.437	76.719	0.44159	0.79118	1.1841	1099.9	-0.37889	0.0018255	0.14278	
174.60	0.44497	15.477	0.064614	77.000	77.282	0.44482	0.79112	1.1843	1097.5	-0.37854	0.0017933	0.14249	
175.08	0.44497	15.464	0.064665	77.563	77.845	0.44804	0.79108	1.1844	1095.1	-0.37818	0.0017621	0.14220	
175.55	0.44497	15.452	0.064717	78.125	78.408	0.45125	0.79105	1.1846	1092.7	-0.37781	0.0017319	0.14192	
176.03	0.44497	15.440	0.064768	78.688	78.971	0.45446	0.79104	1.1848	1090.2	-0.37744	0.0017025	0.14163	
176.50	0.44497	15.427	0.064820	79.251	79.534	0.45765	0.79103	1.1850	1087.8	-0.37706	0.0016740	0.14135	
176.98	0.44497	15.415	0.064872	79.814	80.097	0.46084	0.79104	1.1852	1085.4	-0.37667	0.0016464	0.14106	
177.45	0.44497	15.403	0.064924	80.377	80.660	0.46402	0.79107	1.1854	1083.0	-0.37628	0.0016195	0.14078	
177.93	0.44497	15.390	0.064976	80.940	81.224	0.46719	0.79110	1.1856	1080.6	-0.37589	0.0015934	0.14049	
178.40	0.44497	15.378	0.065028	81.504	81.787	0.47035	0.79114	1.1859	1078.2	-0.37548	0.0015680	0.14021	
178.88	0.44497	15.366	0.065080	82.067	82.351	0.47350	0.79120	1.1861	1075.8	-0.37508	0.0015433	0.13993	
179.35	0.44497	15.353	0.065133	82.631	82.915	0.47665	0.79127	1.1864	1073.3	-0.37466	0.0015193	0.13965	
179.83	0.44497	15.341	0.065185	83.194	83.478	0.47979	0.79134	1.1867	1070.9	-0.37424	0.0014959	0.13937	
180.31	0.44497	15.329	0.065238	83.758	84.042	0.48292	0.79143	1.1869	1068.5	-0.37382	0.0014731	0.13909	
180.78	0.44497	15.316	0.065290	84.322	84.607	0.48605	0.79153	1.1872	1066.1	-0.37339	0.0014509	0.13881	
181.26	0.44497	15.304	0.065343	84.886	85.171	0.48917	0.79164	1.1875	1063.7	-0.37295	0.0014293	0.13853	
181.73	0.44497	15.291	0.065396	85.450	85.735	0.49228	0.79175	1.1878	1061.3	-0.37251	0.0014083	0.13825	
182.21	0.44497	15.279	0.065449	86.015	86.300	0.49538	0.79188	1.1882	1058.9	-0.37206	0.0013877	0.13797	
182.68	0.44497	15.267	0.065502	86.579	86.865	0.49847	0.79202	1.1885	1056.5	-0.37161	0.0013677	0.13769	
183.16	0.44497	15.254	0.065555	87.144	87.430	0.50156	0.79216	1.1888	1054.1	-0.37115	0.0013482	0.13741	
183.63	0.44497	15.242	0.065609	87.709	87.995	0.50464	0.79231	1.1892	1051.7	-0.37069	0.0013291	0.13714	
184.11	0.44497	15.229	0.065662	88.274	88.560	0.50772	0.79248	1.1895	1049.2	-0.37022	0.0013105	0.13686	
184.58	0.44497	15.217	0.065716	88.839	89.125	0.51078	0.79265	1.1899	1046.8	-0.36975	0.0012923	0.13658	
185.06	0.44497	15.205	0.065770	89.404	89.691	0.51384	0.79282	1.1902	1044.4	-0.36927	0.0012745	0.13631	
185.53	0.44497	15.192	0.065823	89.970	90.257	0.51690	0.79301	1.1906	1042.0	-0.36879	0.0012572	0.13603	
186.01	0.44497	15.180	0.065877	90.535	90.823	0.51994	0.79321	1.1910	1039.6	-0.36830	0.0012402	0.13576	
186.48	0.44497	15.167	0.065931	91.101	91.389	0.52298	0.79341	1.1914	1037.2	-0.36781	0.0012237	0.13549	
186.96	0.44497	15.155	0.065985	91.667	91.955	0.52602	0.79362	1.1918	1034.8	-0.36731	0.0012075	0.13521	
187.43	0.44497	15.142	0.066040	92.233	92.521	0.52904	0.79383	1.1922	1032.4	-0.36681	0.0011916	0.13494	
187.91	0.44497	15.130	0.066094	92.800	93.088	0.53206	0.79406	1.1926	1030.0	-0.36630	0.0011761	0.13467	
188.38	0.44497	15.118	0.066148	93.367	93.655	0.53508	0.79429	1.1930	1027.6	-0.36579	0.0011610	0.13440	
188.86	0.44497	15.105	0.066203	93.933	94.222	0.53808	0.79452	1.1935	1025.3	-0.36527	0.0011461	0.13413	
189.34	0.44497	15.093	0.066258	94.501	94.789	0.54108	0.79477	1.1939	1022.9	-0.36475	0.0011316	0.13386	
189.81	0.44497	15.080	0.066313	95.068	95.357	0.54408	0.79502	1.1944	1020.5	-0.36422	0.0011174	0.13359	
190.29	0.44497	15.068	0.066368	95.635	95.925	0.54706	0.79527	1.1948	1018.1	-0.36369	0.0011035	0.13332	
190.76	0.44497	15.055	0.066423	96.203	96.493	0.55004	0.79554	1.1953	1015.7	-0.36315	0.0010898	0.13305	
191.24	0.44497	15.043	0.066478	96.771	97.061	0.55302	0.79580	1.1957	1013.3	-0.36261	0.0010765	0.13278	
191.71	0.44497	15.030	0.066533	97.339	97.629	0.55599	0.79608	1.1962	1010.9	-0.36206	0.0010634	0.13251	
192.19	0.44497	15.018	0.066589	97.907	98.198	0.55895	0.79636	1.1967	1008.5	-0.36151	0.0010505	0.13224	
192.66	0.44497	15.005	0.066644	98.476	98.767	0.56191	0.79664	1.1971	1006.2	-0.36096	0.0010380	0.13197	
193.14	0.44497	14.993	0.066700	99.045	99.336	0.56486	0.79694	1.1976	1003.8	-0.36040	0.0010256	0.13171	
193.61	0.44497	14.980	0.066756	99.614	99.905	0.56780	0.79723	1.1981	1001.4	-0.35983	0.0010136	0.13144	
194.09	0.44497	14.967	0.066812	100.18	100.47	0.57074	0.79753	1.1986	999.02	-0.35927	0.0010017	0.13118	
194.56	0.44497	14.955	0.066868	100.75	101.04	0.57367	0.79784	1.1991	996.64	-0.35869	0.00099008	0.13091	
195.04	0.44497	14.942	0.066924	101.32	101.61	0.57660	0.79815	1.1996	994.27	-0.35811	0.00097868	0.13065	
195.51	0.44497	14.930	0.066980	101.89	102.18	0.57952	0.79847	1.2001	991.90	-0.35753	0.00096749	0.13038	
195.99	0.44497	14.917	0.067037	102.46	102.75	0.58243	0.79879	1.2007	989.53	-0.35694	0.00095650	0.13012	
196.46	0.44497	14.905	0.067093	103.03	103.33	0.58534	0.79912	1.2012	987.16	-0.35635	0.00094572	0.12985	
196.94	0.44497	14.892	0.067150	103.60	103.90	0.58824	0.79945	1.2017	984.79	-0.35575	0.00093514	0.12959	
197.41	0.44497	14.879	0.067207	104.17	104.47	0.59114	0.79978	1.2022	982.43	-0.35515	0.00092475	0.12933	
197.89	0.44497	14.867	0.067264	104.75	105.04	0.59403	0.80012	1.2028	980.06	-0.35455	0.00091455	0.12907	
198.36	0.44497	14.854	0.067321	105.32	105.61	0.59692	0.80046	1.2033	977.70	-0.35394	0.00090453	0.12880	
198.84	0.44497	14.842	0.067378	105.89	106.18	0.59980	0.80081	1.2039	975.34	-0.35332	0.00089469	0.12854	
199.32	0.44497	14.829	0.067436	106.46	106.76	0.60267	0.80116	1.2044	972.98	-0.35270	0.00088502	0.12828	
199.79	0.44497	14.816	0.067493	107.03	107.33	0.60554	0.80152	1.2050	970.63	-0.35208	0.00087552	0.12802	
200.27	0.44497	14.804	0.067551	107.61	107.90	0.60840	0.80188	1.2055	968.27	-0.35145	0.00086619	0.12776	
200.74	0.44497	14.791	0.067609	108.18	108.47	0.61126	0.80224	1.2061	965.92	-0.35081	0.00085702	0.12750	
201.22	0.44497	14.778	0.067667	108.75	109.05	0.61411	0.80261	1.2067	963.57	-0.35018	0.00084800	0.12724	
201.69	0.44497	14.766	0.067725	109.33	109.62	0.61696	0.80298	1.2073	961.22	-0.34953	0.00083914	0.12698	
202.17	0.44497	14.753	0.067783	109.90	110.19	0.61980	0.80335	1.2078	958.87	-0.34888	0.00083042	0.12673	
202.64	0.44497	14.740	0.067841	110.47	110.77	0.62264	0.80373	1.2084	956.52	-0.34823	0.00082185	0.12647	
203.12	0.44497	14.728	0.067900	111.05	111.34	0.62547	0.80411	1.2090	954.18	-0.34758	0.00081342	0.12621	
203.59	0.44497	14.715	0.067958	111.62	111.92	0.62830	0.80450	1.2096	951.84	-0.34691	0.00080514	0.12595	
204.07	0.44497	14.702	0.068017	112.20	112.49	0.63112	0.80489	1.2102	949.50	-0.34625	0.00079698	0.12570	
204.54	0.44497	14.689	0.068076	112.77	113.07	0.63393	0.80528	1.2108	947.16	-0.34558	0.00078896	0.12544	
205.02	0.44497	14.677	0.068135	113.35	113.64	0.63675	0.80567	1.2114	944.82	-0.34490	0.00078107	0.12519	
205.49	0.44497	14.664	0.068194	113.92	114.22	0.63955	0.80607	1.2120	942.49	-0.34422	0.00077331	0.12493	
205.97	0.44497	14.651	0.068253	114.50	114.80	0.64235	0.80647	1.2126	940.15	-0.34353	0.00076567	0.12468	
206.44	0.44497	14.639	0.068313	115.07	115.37	0.64515	0.80687	1.2133	937.82	-0.34284	0.00075814	0.12442	
206.92	0.44497	14.626	0.068373	115.65	115.95	0.64794	0.80728	1.2139	935.49	-0.34215	0.00075074	0.12417	
207.39	0.44497	14.613	0.068432	116.23	116.53	0.65072	0.80769	1.2145	933.16	-0.34145	0.00074345	0.12392	
207.87	0.44497	14.600	0.068492	116.80	117.10	0.65350	0.80810	1.2151	930.84	-0.34074	0.00073628	0.12366	
208.35	0.44497	14.587	0.068552	117.38	117.68	0.65628	0.80851	1.2158	928.51	-0.34004	0.00072921	0.12341	
208.82	0.44497	14.575	0.068613	117.96	118.26	0.65905	0.80893	1.2164	926.19	-0.33932	0.00072226	0.12316	
209.30	0.44497	14.562	0.068673	118.54	118.84	0.66182	0.80935	1.2170	923.87	-0.33860	0.00071540	0.12291	
209.77	0.44497	14.549	0.068734	119.12	119.42	0.66458	0.80977	1.2177	921.55	-0.33788	0.00070865	0.12265	
210.25	0.44497	14.536	0.068794	119.69	119.99	0.66733	0.81020	1.2183	919.23	-0.33715	0.00070201	0.12240	
210.72	0.44497	14.523	0.068855	120.27	120.57	0.67009	0.81062	1.2190	916.92	-0.33641	0.00069546	0.12215	
211.20	0.44497	14.510	0.068916	120.85	121.15	0.67283	0.81105	1.2196	914.61	-0.33567	0.00068900	0.12190	
211.67	0.44497	14.498	0.068977	121.43	121.73	0.67557	0.81149	1.2203	912.29	-0.33493	0.00068265	0.12165	
212.15	0.44497	14.485	0.069039	122.01	122.31	0.67831	0.81192	1.2210	909.98	-0.33418	0.00067638	0.12140	
212.62	0.44497	14.472	0.069100	122.59	122.89	0.68105	0.81236	1.2216	907.68	-0.33342	0.00067021	0.12116	
213.10	0.44497	14.459	0.069162	123.17	123.47	0.68377	0.81280	1.2223	905.37	-0.33267	0.00066412	0.12091	
213.57	0.44497	14.446	0.069223	123.75	124.06	0.68650	0.81324	1.2230	903.06	-0.33190	0.00065812	0.12066	
214.05	0.44497	14.433	0.069285	124.33	124.64	0.68922	0.81368	1.2237	900.76	-0.33113	0.00065221	0.12041	
214.52	0.44497	14.420	0.069348	124.92	125.22	0.69193	0.81413	1.2243	898.46	-0.33035	0.00064638	0.12016	
215.00	0.44497	14.407	0.069410	125.50	125.80	0.69464	0.81457	1.2250	896.16	-0.32957	0.00064063	0.11992	
215.47	0.44497	14.394	0.069472	126.08	126.38	0.69735	0.81502	1.2257	893.86	-0.32879	0.00063496	0.11967	
215.95	0.44497	14.381	0.069535	126.66	126.97	0.70005	0.81547	1.2264	891.57	-0.32800	0.00062937	0.11943	
216.42	0.44497	14.368	0.069598	127.25	127.55	0.70274	0.81593	1.2271	889.27	-0.32720	0.00062386	0.11918	
216.90	0.44497	14.355	0.069661	127.83	128.13	0.70544	0.81638	1.2278	886.98	-0.32640	0.00061842	0.11893	
217.37	0.44497	14.342	0.069724	128.41	128.72	0.70813	0.81684	1.2285	884.69	-0.32559	0.00061306	0.11869	
217.85	0.44497	14.329	0.069787	129.00	129.30	0.71081	0.81730	1.2292	882.40	-0.32477	0.00060777	0.11845	
218.33	0.44497	14.316	0.069851	129.58	129.88	0.71349	0.81776	1.2299	880.11	-0.32395	0.00060255	0.11820	
218.80	0.44497	14.303	0.069914	130.16	130.47	0.71616	0.81822	1.2306	877.82	-0.32313	0.00059740	0.11796	
219.28	0.44497	14.290	0.069978	130.75	131.05	0.71883	0.81869	1.2313	875.54	-0.32230	0.00059232	0.11771	
219.75	0.44497	14.277	0.070042	131.33	131.64	0.72150	0.81915	1.2321	873.26	-0.32146	0.00058730	0.11747	
220.23	0.44497	14.264	0.070106	131.92	132.22	0.72416	0.81962	1.2328	870.98	-0.32062	0.00058235	0.11723	
220.70	0.44497	14.251	0.070171	132.50	132.81	0.72682	0.82009	1.2335	868.70	-0.31977	0.00057747	0.11699	
221.18	0.44497	14.238	0.070235	133.09	133.40	0.72948	0.82056	1.2342	866.42	-0.31892	0.00057265	0.11674	
221.65	0.44497	14.225	0.070300	133.68	133.98	0.73213	0.82103	1.2350	864.14	-0.31806	0.00056789	0.11650	
222.13	0.44497	14.212	0.070365	134.26	134.57	0.73477	0.82151	1.2357	861.87	-0.31719	0.00056319	0.11626	
222.60	0.44497	14.199	0.070430	134.85	135.16	0.73741	0.82198	1.2364	859.59	-0.31632	0.00055855	0.11602	
223.08	0.44497	14.185	0.070495	135.44	135.75	0.74005	0.82246	1.2372	857.32	-0.31544	0.00055397	0.11578	
223.55	0.44497	14.172	0.070560	136.03	136.33	0.74269	0.82294	1.2379	855.05	-0.31456	0.00054945	0.11554	
224.03	0.44497	14.159	0.070626	136.62	136.92	0.74531	0.82342	1.2387	852.78	-0.31367	0.00054499	0.11530	
224.50	0.44497	14.146	0.070692	137.20	137.51	0.74794	0.82390	1.2394	850.52	-0.31277	0.00054058	0.11506	
224.98	0.44497	14.133	0.070758	137.79	138.10	0.75056	0.82438	1.2402	848.25	-0.31187	0.00053623	0.11482	
225.45	0.44497	14.119	0.070824	138.38	138.69	0.75318	0.82487	1.2410	845.98	-0.31096	0.00053192	0.11459	
225.93	0.44497	14.106	0.070890	138.97	139.28	0.75579	0.82535	1.2417	843.72	-0.31005	0.00052768	0.11435	
226.40	0.44497	14.093	0.070957	139.56	139.87	0.75840	0.82584	1.2425	841.46	-0.30913	0.00052348	0.11411	
226.88	0.44497	14.080	0.071024	140.15	140.46	0.76101	0.82633	1.2433	839.20	-0.30820	0.00051933	0.11387	
227.36	0.44497	14.067	0.071091	140.74	141.05	0.76361	0.82682	1.2440	836.94	-0.30726	0.00051524	0.11363	
227.83	0.44497	14.053	0.071158	141.33	141.64	0.76621	0.82731	1.2448	834.68	-0.30632	0.00051119	0.11340	
228.31	0.44497	14.040	0.071225	141.93	142.24	0.76881	0.82781	1.2456	832.43	-0.30537	0.00050719	0.11316	
228.78	0.44497	14.027	0.071293	142.52	142.83	0.77140	0.82830	1.2464	830.17	-0.30442	0.00050324	0.11293	
229.26	0.44497	14.013	0.071361	143.11	143.42	0.77398	0.82880	1.2472	827.92	-0.30346	0.00049934	0.11269	
229.73	0.44497	14.000	0.071429	143.70	144.01	0.77657	0.82929	1.2480	825.67	-0.30249	0.00049548	0.11245	
230.21	0.44497	13.987	0.071497	144.30	144.61	0.77915	0.82979	1.2488	823.42	-0.30151	0.00049167	0.11222	
230.68	0.44497	13.973	0.071565	144.89	145.20	0.78172	0.83029	1.2496	821.17	-0.30053	0.00048790	0.11198	
231.16	0.44497	13.960	0.071634	145.48	145.79	0.78430	0.83079	1.2504	818.92	-0.29954	0.00048417	0.11175	
231.63	0.44497	13.946	0.071703	146.08	146.39	0.78687	0.83129	1.2512	816.67	-0.29854	0.00048049	0.11152	
232.11	0.44497	13.933	0.071772	146.67	146.98	0.78943	0.83179	1.2520	814.43	-0.29753	0.00047685	0.11128	
232.58	0.44497	13.920	0.071841	147.27	147.58	0.79199	0.83230	1.2528	812.18	-0.29652	0.00047325	0.11105	
233.06	0.44497	13.906	0.071910	147.86	148.17	0.79455	0.83280	1.2536	809.94	-0.29550	0.00046969	0.11082	
233.53	0.44497	13.893	0.071980	148.46	148.77	0.79710	0.83331	1.2544	807.70	-0.29448	0.00046617	0.11058	
234.01	0.44497	13.879	0.072050	149.05	149.37	0.79966	0.83382	1.2553	805.46	-0.29344	0.00046269	0.11035	
234.48	0.44497	13.866	0.072120	149.65	149.96	0.80220	0.83433	1.2561	803.22	-0.29240	0.00045924	0.11012	
234.96	0.44497	13.852	0.072190	150.25	150.56	0.80475	0.83484	1.2569	800.98	-0.29135	0.00045584	0.10989	
235.43	0.44497	13.839	0.072261	150.84	151.16	0.80729	0.83535	1.2578	798.74	-0.29029	0.00045247	0.10966	
235.91	0.44497	13.825	0.072332	151.44	151.76	0.80983	0.83586	1.2586	796.51	-0.28923	0.00044914	0.10942	
236.38	0.44497	13.812	0.072403	152.04	152.35	0.81236	0.83637	1.2594	794.27	-0.28815	0.00044585	0.10919	
236.86	0.44497	13.798	0.072474	152.64	152.95	0.81489	0.83689	1.2603	792.04	-0.28707	0.00044259	0.10896	
237.34	0.44497	13.784	0.072545	153.24	153.55	0.81742	0.83740	1.2611	789.80	-0.28598	0.00043937	0.10873	
237.81	0.44497	13.771	0.072617	153.84	154.15	0.81994	0.83792	1.2620	787.57	-0.28488	0.00043618	0.10850	
238.29	0.44497	13.757	0.072689	154.44	154.75	0.82246	0.83844	1.2629	785.34	-0.28377	0.00043303	0.10827	
238.76	0.44497	13.744	0.072761	155.04	155.35	0.82498	0.83895	1.2637	783.11	-0.28266	0.00042991	0.10804	
239.24	0.44497	13.730	0.072834	155.64	155.95	0.82749	0.83947	1.2646	780.88	-0.28153	0.00042682	0.10781	
239.71	0.44497	13.716	0.072906	156.24	156.55	0.83000	0.83999	1.2655	778.66	-0.28040	0.00042376	0.10759	
240.19	0.44497	13.703	0.072979	156.84	157.16	0.83251	0.84052	1.2663	776.43	-0.27926	0.00042074	0.10736	
240.66	0.44497	13.689	0.073052	157.44	157.76	0.83501	0.84104	1.2672	774.20	-0.27811	0.00041775	0.10713	
241.14	0.44497	13.675	0.073126	158.04	158.36	0.83751	0.84156	1.2681	771.98	-0.27695	0.00041478	0.10690	
241.61	0.44497	13.661	0.073199	158.64	158.96	0.84001	0.84209	1.2690	769.75	-0.27578	0.00041185	0.10667	
242.09	0.44497	13.648	0.073273	159.25	159.57	0.84251	0.84261	1.2699	767.53	-0.27461	0.00040895	0.10645	
242.56	0.44497	13.634	0.073347	159.85	160.17	0.84500	0.84314	1.2708	765.31	-0.27342	0.00040608	0.10622	
243.04	0.44497	13.620	0.073422	160.45	160.77	0.84749	0.84367	1.2717	763.08	-0.27222	0.00040324	0.10599	
243.51	0.44497	13.606	0.073496	161.06	161.38	0.84997	0.84419	1.2726	760.86	-0.27102	0.00040042	0.10577	
243.99	0.44497	13.592	0.073571	161.66	161.98	0.85245	0.84472	1.2735	758.64	-0.26980	0.00039763	0.10554	
244.46	0.44497	13.578	0.073646	162.27	162.59	0.85493	0.84525	1.2744	756.42	-0.26858	0.00039488	0.10531	
244.94	0.44497	13.565	0.073722	162.87	163.20	0.85741	0.84579	1.2753	754.21	-0.26734	0.00039214	0.10509	
245.41	0.44497	13.551	0.073797	163.48	163.80	0.85988	0.84632	1.2763	751.99	-0.26610	0.00038944	0.10486	
245.89	0.44497	13.537	0.073873	164.09	164.41	0.86235	0.84685	1.2772	749.77	-0.26484	0.00038676	0.10464	
246.37	0.44497	13.523	0.073950	164.69	165.02	0.86482	0.84739	1.2781	747.55	-0.26358	0.00038411	0.10441	
246.84	0.44497	13.509	0.074026	165.30	165.62	0.86728	0.84792	1.2791	745.34	-0.26230	0.00038148	0.10419	
247.32	0.44497	13.495	0.074103	165.91	166.23	0.86974	0.84846	1.2800	743.12	-0.26102	0.00037888	0.10397	
247.79	0.44497	13.481	0.074180	166.52	166.84	0.87220	0.84899	1.2810	740.91	-0.25972	0.00037630	0.10374	
248.27	0.44497	13.467	0.074257	167.13	167.45	0.87466	0.84953	1.2819	738.69	-0.25842	0.00037375	0.10352	
248.74	0.44497	13.453	0.074335	167.73	168.06	0.87711	0.85007	1.2829	736.48	-0.25710	0.00037123	0.10329	
249.22	0.44497	13.439	0.074413	168.34	168.67	0.87956	0.85061	1.2838	734.27	-0.25577	0.00036872	0.10307	
249.69	0.44497	13.424	0.074491	168.95	169.28	0.88201	0.85115	1.2848	732.05	-0.25443	0.00036624	0.10285	
250.17	0.44497	13.410	0.074569	169.56	169.89	0.88445	0.85170	1.2858	729.84	-0.25308	0.00036378	0.10263	
250.64	0.44497	13.396	0.074648	170.18	170.50	0.88689	0.85224	1.2867	727.63	-0.25172	0.00036135	0.10240	
251.12	0.44497	13.382	0.074727	170.79	171.11	0.88933	0.85278	1.2877	725.42	-0.25034	0.00035894	0.10218	
251.59	0.44497	13.368	0.074806	171.40	171.72	0.89177	0.85333	1.2887	723.21	-0.24896	0.00035655	0.10196	
252.07	0.44497	13.354	0.074886	172.01	172.34	0.89420	0.85387	1.2897	721.00	-0.24756	0.00035418	0.10174	
252.54	0.44497	13.339	0.074966	172.62	172.95	0.89663	0.85442	1.2907	718.79	-0.24615	0.00035184	0.10152	
253.02	0.44497	13.325	0.075046	173.24	173.56	0.89906	0.85497	1.2917	716.58	-0.24473	0.00034951	0.10129	
253.49	0.44497	13.311	0.075127	173.85	174.18	0.90148	0.85552	1.2927	714.37	-0.24330	0.00034721	0.10107	
253.97	0.44497	13.297	0.075207	174.47	174.79	0.90390	0.85606	1.2937	712.16	-0.24185	0.00034492	0.10085	
254.44	0.44497	13.282	0.075289	175.08	175.41	0.90632	0.85662	1.2948	709.95	-0.24039	0.00034266	0.10063	
254.92	0.44497	13.268	0.075370	175.70	176.02	0.90874	0.85717	1.2958	707.74	-0.23892	0.00034042	0.10041	
255.39	0.44497	13.253	0.075452	176.31	176.64	0.91115	0.85772	1.2968	705.53	-0.23744	0.00033820	0.10019	
255.87	0.44497	13.239	0.075534	176.93	177.26	0.91357	0.85827	1.2978	703.33	-0.23594	0.00033599	0.099972	
256.35	0.44497	13.225	0.075616	177.54	177.87	0.91598	0.85883	1.2989	701.12	-0.23443	0.00033381	0.099752	
256.82	0.44497	13.210	0.075699	178.16	178.49	0.91838	0.85938	1.2999	698.91	-0.23291	0.00033164	0.099533	
257.30	0.44497	13.196	0.075782	178.78	179.11	0.92079	0.85994	1.3010	696.70	-0.23137	0.00032950	0.099314	
257.77	0.44497	13.181	0.075866	179.40	179.73	0.92319	0.86049	1.3021	694.50	-0.22982	0.00032737	0.099095	
258.25	0.44497	13.167	0.075949	180.02	180.35	0.92559	0.86105	1.3031	692.29	-0.22825	0.00032526	0.098876	
258.72	0.44497	13.152	0.076033	180.63	180.97	0.92799	0.86161	1.3042	690.08	-0.22667	0.00032317	0.098657	
259.20	0.44497	13.138	0.076118	181.25	181.59	0.93038	0.86217	1.3053	687.87	-0.22508	0.00032109	0.098439	
259.67	0.44497	13.123	0.076203	181.87	182.21	0.93277	0.86273	1.3064	685.67	-0.22347	0.00031904	0.098221	
