function [t,s,h,cp]=R134aisop_22
data=[
170.80	2.2000	15.595	0.064122	72.191	73.573	0.41694	0.79251	1.1823	1123.2	-0.38241	0.0021443	0.14535	
171.28	2.2000	15.583	0.064172	72.752	74.135	0.42022	0.79235	1.1823	1120.8	-0.38212	0.0021014	0.14506	
171.75	2.2000	15.571	0.064222	73.312	74.697	0.42350	0.79221	1.1824	1118.4	-0.38182	0.0020601	0.14477	
172.23	2.2000	15.559	0.064272	73.873	75.259	0.42677	0.79208	1.1824	1116.0	-0.38151	0.0020203	0.14448	
172.70	2.2000	15.547	0.064323	74.434	75.821	0.43003	0.79197	1.1825	1113.6	-0.38120	0.0019818	0.14420	
173.18	2.2000	15.534	0.064373	74.995	76.383	0.43327	0.79187	1.1826	1111.2	-0.38088	0.0019447	0.14391	
173.65	2.2000	15.522	0.064424	75.556	76.945	0.43652	0.79179	1.1827	1108.8	-0.38055	0.0019087	0.14362	
174.13	2.2000	15.510	0.064475	76.117	77.507	0.43975	0.79172	1.1828	1106.5	-0.38022	0.0018740	0.14334	
174.60	2.2000	15.498	0.064525	76.678	78.069	0.44297	0.79166	1.1830	1104.1	-0.37988	0.0018404	0.14305	
175.08	2.2000	15.486	0.064576	77.239	78.632	0.44619	0.79162	1.1831	1101.7	-0.37953	0.0018078	0.14276	
175.55	2.2000	15.473	0.064627	77.800	79.194	0.44940	0.79159	1.1833	1099.3	-0.37918	0.0017762	0.14248	
176.03	2.2000	15.461	0.064678	78.362	79.756	0.45260	0.79158	1.1834	1096.9	-0.37882	0.0017457	0.14220	
176.50	2.2000	15.449	0.064729	78.923	80.319	0.45579	0.79157	1.1836	1094.5	-0.37846	0.0017160	0.14191	
176.98	2.2000	15.437	0.064781	79.485	80.881	0.45897	0.79158	1.1838	1092.1	-0.37809	0.0016872	0.14163	
177.45	2.2000	15.424	0.064832	80.046	81.444	0.46214	0.79160	1.1840	1089.7	-0.37771	0.0016593	0.14135	
177.93	2.2000	15.412	0.064884	80.608	82.007	0.46531	0.79164	1.1842	1087.3	-0.37733	0.0016321	0.14107	
178.40	2.2000	15.400	0.064935	81.170	82.570	0.46847	0.79168	1.1845	1084.9	-0.37695	0.0016058	0.14078	
178.88	2.2000	15.388	0.064987	81.731	83.133	0.47162	0.79174	1.1847	1082.5	-0.37655	0.0015801	0.14050	
179.35	2.2000	15.375	0.065039	82.293	83.696	0.47477	0.79180	1.1850	1080.1	-0.37615	0.0015552	0.14022	
179.83	2.2000	15.363	0.065090	82.855	84.259	0.47790	0.79188	1.1852	1077.7	-0.37575	0.0015310	0.13994	
180.31	2.2000	15.351	0.065142	83.418	84.822	0.48103	0.79197	1.1855	1075.3	-0.37534	0.0015074	0.13966	
180.78	2.2000	15.339	0.065195	83.980	85.386	0.48415	0.79206	1.1858	1073.0	-0.37493	0.0014844	0.13939	
181.26	2.2000	15.326	0.065247	84.543	85.949	0.48726	0.79217	1.1860	1070.6	-0.37451	0.0014620	0.13911	
181.73	2.2000	15.314	0.065299	85.105	86.513	0.49037	0.79229	1.1863	1068.2	-0.37408	0.0014402	0.13883	
182.21	2.2000	15.302	0.065351	85.668	87.077	0.49347	0.79241	1.1867	1065.8	-0.37365	0.0014190	0.13855	
182.68	2.2000	15.290	0.065404	86.231	87.641	0.49656	0.79255	1.1870	1063.4	-0.37322	0.0013983	0.13828	
183.16	2.2000	15.277	0.065457	86.794	88.205	0.49965	0.79269	1.1873	1061.0	-0.37278	0.0013781	0.13800	
183.63	2.2000	15.265	0.065509	87.357	88.770	0.50272	0.79284	1.1876	1058.6	-0.37233	0.0013584	0.13772	
184.11	2.2000	15.253	0.065562	87.920	89.334	0.50579	0.79301	1.1880	1056.3	-0.37188	0.0013392	0.13745	
184.58	2.2000	15.240	0.065615	88.484	89.899	0.50886	0.79317	1.1883	1053.9	-0.37142	0.0013204	0.13718	
185.06	2.2000	15.228	0.065668	89.048	90.464	0.51191	0.79335	1.1887	1051.5	-0.37096	0.0013021	0.13690	
185.53	2.2000	15.216	0.065721	89.611	91.029	0.51496	0.79354	1.1890	1049.1	-0.37050	0.0012842	0.13663	
186.01	2.2000	15.203	0.065774	90.175	91.594	0.51800	0.79373	1.1894	1046.7	-0.37003	0.0012667	0.13635	
186.48	2.2000	15.191	0.065828	90.740	92.159	0.52104	0.79393	1.1898	1044.4	-0.36955	0.0012496	0.13608	
186.96	2.2000	15.179	0.065881	91.304	92.725	0.52407	0.79414	1.1902	1042.0	-0.36907	0.0012330	0.13581	
187.43	2.2000	15.166	0.065935	91.869	93.290	0.52709	0.79436	1.1906	1039.6	-0.36859	0.0012166	0.13554	
187.91	2.2000	15.154	0.065989	92.433	93.856	0.53011	0.79458	1.1910	1037.2	-0.36810	0.0012007	0.13527	
188.38	2.2000	15.142	0.066042	92.998	94.422	0.53311	0.79481	1.1914	1034.9	-0.36761	0.0011851	0.13500	
188.86	2.2000	15.129	0.066096	93.563	94.989	0.53612	0.79504	1.1918	1032.5	-0.36711	0.0011698	0.13473	
189.34	2.2000	15.117	0.066150	94.129	95.555	0.53911	0.79529	1.1922	1030.1	-0.36661	0.0011549	0.13446	
189.81	2.2000	15.105	0.066205	94.694	96.122	0.54210	0.79554	1.1927	1027.8	-0.36610	0.0011403	0.13419	
190.29	2.2000	15.092	0.066259	95.260	96.689	0.54508	0.79579	1.1931	1025.4	-0.36559	0.0011259	0.13393	
190.76	2.2000	15.080	0.066313	95.826	97.256	0.54806	0.79605	1.1935	1023.0	-0.36507	0.0011119	0.13366	
191.24	2.2000	15.068	0.066368	96.392	97.823	0.55103	0.79632	1.1940	1020.7	-0.36455	0.0010982	0.13339	
191.71	2.2000	15.055	0.066422	96.959	98.391	0.55400	0.79659	1.1944	1018.3	-0.36402	0.0010848	0.13312	
192.19	2.2000	15.043	0.066477	97.525	98.959	0.55695	0.79687	1.1949	1015.9	-0.36349	0.0010716	0.13286	
192.66	2.2000	15.030	0.066532	98.092	99.527	0.55991	0.79716	1.1954	1013.6	-0.36296	0.0010587	0.13259	
193.14	2.2000	15.018	0.066587	98.659	100.09	0.56285	0.79745	1.1958	1011.2	-0.36242	0.0010460	0.13233	
193.61	2.2000	15.006	0.066642	99.226	100.66	0.56579	0.79774	1.1963	1008.9	-0.36188	0.0010336	0.13206	
194.09	2.2000	14.993	0.066697	99.794	101.23	0.56872	0.79804	1.1968	1006.5	-0.36133	0.0010215	0.13180	
194.56	2.2000	14.981	0.066753	100.36	101.80	0.57165	0.79835	1.1973	1004.2	-0.36078	0.0010095	0.13153	
195.04	2.2000	14.968	0.066808	100.93	102.37	0.57457	0.79866	1.1978	1001.8	-0.36022	0.00099784	0.13127	
195.51	2.2000	14.956	0.066864	101.50	102.94	0.57749	0.79897	1.1983	999.47	-0.35966	0.00098637	0.13101	
195.99	2.2000	14.943	0.066919	102.07	103.51	0.58040	0.79929	1.1988	997.13	-0.35910	0.00097511	0.13075	
196.46	2.2000	14.931	0.066975	102.63	104.08	0.58330	0.79962	1.1993	994.78	-0.35853	0.00096406	0.13048	
196.94	2.2000	14.918	0.067031	103.20	104.65	0.58620	0.79995	1.1998	992.44	-0.35795	0.00095322	0.13022	
197.41	2.2000	14.906	0.067087	103.77	105.22	0.58909	0.80028	1.2003	990.10	-0.35737	0.00094258	0.12996	
197.89	2.2000	14.893	0.067143	104.34	105.79	0.59198	0.80062	1.2008	987.77	-0.35679	0.00093213	0.12970	
198.36	2.2000	14.881	0.067200	104.91	106.36	0.59486	0.80096	1.2014	985.43	-0.35620	0.00092187	0.12944	
198.84	2.2000	14.869	0.067256	105.48	106.93	0.59774	0.80130	1.2019	983.10	-0.35561	0.00091180	0.12918	
199.32	2.2000	14.856	0.067313	106.05	107.50	0.60061	0.80165	1.2024	980.76	-0.35502	0.00090190	0.12892	
199.79	2.2000	14.844	0.067370	106.62	108.07	0.60347	0.80201	1.2030	978.43	-0.35442	0.00089218	0.12866	
200.27	2.2000	14.831	0.067426	107.19	108.65	0.60633	0.80237	1.2035	976.10	-0.35381	0.00088263	0.12841	
200.74	2.2000	14.818	0.067483	107.76	109.22	0.60918	0.80273	1.2041	973.78	-0.35320	0.00087325	0.12815	
201.22	2.2000	14.806	0.067540	108.33	109.79	0.61203	0.80309	1.2046	971.45	-0.35259	0.00086403	0.12789	
201.69	2.2000	14.793	0.067598	108.91	110.36	0.61487	0.80346	1.2052	969.13	-0.35197	0.00085496	0.12763	
202.17	2.2000	14.781	0.067655	109.48	110.94	0.61771	0.80384	1.2057	966.81	-0.35135	0.00084605	0.12738	
202.64	2.2000	14.768	0.067713	110.05	111.51	0.62054	0.80421	1.2063	964.49	-0.35073	0.00083729	0.12712	
203.12	2.2000	14.756	0.067770	110.62	112.08	0.62337	0.80459	1.2069	962.18	-0.35010	0.00082868	0.12687	
203.59	2.2000	14.743	0.067828	111.19	112.66	0.62619	0.80497	1.2075	959.86	-0.34946	0.00082021	0.12661	
204.07	2.2000	14.731	0.067886	111.77	113.23	0.62901	0.80536	1.2080	957.55	-0.34882	0.00081188	0.12636	
204.54	2.2000	14.718	0.067944	112.34	113.80	0.63182	0.80575	1.2086	955.24	-0.34818	0.00080368	0.12610	
205.02	2.2000	14.705	0.068002	112.91	114.38	0.63462	0.80614	1.2092	952.93	-0.34753	0.00079562	0.12585	
205.49	2.2000	14.693	0.068060	113.49	114.95	0.63742	0.80654	1.2098	950.62	-0.34688	0.00078769	0.12560	
205.97	2.2000	14.680	0.068119	114.06	115.53	0.64022	0.80694	1.2104	948.32	-0.34622	0.00077989	0.12534	
206.44	2.2000	14.668	0.068177	114.63	116.10	0.64301	0.80734	1.2110	946.01	-0.34556	0.00077221	0.12509	
206.92	2.2000	14.655	0.068236	115.21	116.68	0.64579	0.80774	1.2116	943.71	-0.34489	0.00076465	0.12484	
207.39	2.2000	14.642	0.068295	115.78	117.26	0.64857	0.80815	1.2122	941.41	-0.34422	0.00075721	0.12459	
207.87	2.2000	14.630	0.068354	116.36	117.83	0.65135	0.80856	1.2128	939.12	-0.34355	0.00074989	0.12434	
208.35	2.2000	14.617	0.068413	116.93	118.41	0.65412	0.80897	1.2134	936.82	-0.34287	0.00074268	0.12409	
208.82	2.2000	14.604	0.068472	117.51	118.99	0.65688	0.80938	1.2141	934.53	-0.34218	0.00073558	0.12383	
209.30	2.2000	14.592	0.068532	118.09	119.56	0.65965	0.80980	1.2147	932.24	-0.34149	0.00072859	0.12359	
209.77	2.2000	14.579	0.068591	118.66	120.14	0.66240	0.81022	1.2153	929.95	-0.34080	0.00072171	0.12334	
210.25	2.2000	14.566	0.068651	119.24	120.72	0.66515	0.81064	1.2159	927.66	-0.34010	0.00071493	0.12309	
210.72	2.2000	14.554	0.068711	119.81	121.30	0.66790	0.81107	1.2166	925.37	-0.33940	0.00070825	0.12284	
211.20	2.2000	14.541	0.068771	120.39	121.87	0.67064	0.81150	1.2172	923.09	-0.33869	0.00070167	0.12259	
211.67	2.2000	14.528	0.068831	120.97	122.45	0.67338	0.81193	1.2178	920.81	-0.33798	0.00069518	0.12234	
212.15	2.2000	14.516	0.068892	121.55	123.03	0.67611	0.81236	1.2185	918.53	-0.33726	0.00068880	0.12210	
212.62	2.2000	14.503	0.068952	122.12	123.61	0.67884	0.81279	1.2191	916.25	-0.33654	0.00068250	0.12185	
213.10	2.2000	14.490	0.069013	122.70	124.19	0.68156	0.81323	1.2198	913.97	-0.33582	0.00067630	0.12160	
213.57	2.2000	14.477	0.069073	123.28	124.77	0.68428	0.81367	1.2204	911.70	-0.33509	0.00067019	0.12136	
214.05	2.2000	14.465	0.069134	123.86	125.35	0.68699	0.81411	1.2211	909.43	-0.33435	0.00066416	0.12111	
214.52	2.2000	14.452	0.069195	124.44	125.93	0.68970	0.81455	1.2217	907.16	-0.33361	0.00065822	0.12086	
215.00	2.2000	14.439	0.069257	125.02	126.51	0.69240	0.81500	1.2224	904.89	-0.33286	0.00065236	0.12062	
215.47	2.2000	14.426	0.069318	125.60	127.09	0.69510	0.81544	1.2231	902.62	-0.33211	0.00064659	0.12038	
215.95	2.2000	14.413	0.069380	126.18	127.67	0.69780	0.81589	1.2237	900.36	-0.33136	0.00064090	0.12013	
216.42	2.2000	14.401	0.069441	126.76	128.26	0.70049	0.81634	1.2244	898.10	-0.33060	0.00063528	0.11989	
216.90	2.2000	14.388	0.069503	127.34	128.84	0.70318	0.81679	1.2251	895.84	-0.32983	0.00062975	0.11964	
217.37	2.2000	14.375	0.069565	127.92	129.42	0.70586	0.81725	1.2257	893.58	-0.32906	0.00062429	0.11940	
217.85	2.2000	14.362	0.069627	128.50	130.00	0.70854	0.81771	1.2264	891.32	-0.32829	0.00061890	0.11916	
218.33	2.2000	14.349	0.069690	129.08	130.59	0.71121	0.81816	1.2271	889.07	-0.32751	0.00061359	0.11892	
218.80	2.2000	14.336	0.069752	129.67	131.17	0.71388	0.81862	1.2278	886.81	-0.32672	0.00060834	0.11868	
219.28	2.2000	14.324	0.069815	130.25	131.75	0.71654	0.81908	1.2285	884.56	-0.32593	0.00060317	0.11843	
219.75	2.2000	14.311	0.069878	130.83	132.34	0.71920	0.81955	1.2292	882.31	-0.32513	0.00059807	0.11819	
220.23	2.2000	14.298	0.069941	131.41	132.92	0.72186	0.82001	1.2299	880.06	-0.32433	0.00059303	0.11795	
220.70	2.2000	14.285	0.070004	132.00	133.51	0.72451	0.82048	1.2306	877.82	-0.32352	0.00058806	0.11771	
221.18	2.2000	14.272	0.070067	132.58	134.09	0.72716	0.82095	1.2313	875.57	-0.32271	0.00058316	0.11747	
221.65	2.2000	14.259	0.070131	133.16	134.68	0.72980	0.82142	1.2320	873.33	-0.32189	0.00057832	0.11723	
222.13	2.2000	14.246	0.070195	133.75	135.26	0.73244	0.82189	1.2327	871.09	-0.32107	0.00057354	0.11700	
222.60	2.2000	14.233	0.070259	134.33	135.85	0.73508	0.82236	1.2334	868.85	-0.32024	0.00056882	0.11676	
223.08	2.2000	14.220	0.070323	134.92	136.43	0.73771	0.82284	1.2341	866.61	-0.31941	0.00056417	0.11652	
223.55	2.2000	14.207	0.070387	135.50	137.02	0.74034	0.82331	1.2349	864.38	-0.31857	0.00055957	0.11628	
224.03	2.2000	14.194	0.070451	136.09	137.61	0.74296	0.82379	1.2356	862.14	-0.31772	0.00055503	0.11604	
224.50	2.2000	14.181	0.070516	136.68	138.20	0.74558	0.82427	1.2363	859.91	-0.31687	0.00055055	0.11581	
224.98	2.2000	14.168	0.070581	137.26	138.78	0.74819	0.82475	1.2370	857.68	-0.31602	0.00054612	0.11557	
225.45	2.2000	14.155	0.070645	137.85	139.37	0.75080	0.82523	1.2378	855.45	-0.31515	0.00054175	0.11533	
225.93	2.2000	14.142	0.070711	138.44	139.96	0.75341	0.82571	1.2385	853.22	-0.31428	0.00053743	0.11510	
226.40	2.2000	14.129	0.070776	139.02	140.55	0.75601	0.82620	1.2392	851.00	-0.31341	0.00053316	0.11486	
226.88	2.2000	14.116	0.070841	139.61	141.14	0.75861	0.82668	1.2400	848.77	-0.31253	0.00052895	0.11463	
227.36	2.2000	14.103	0.070907	140.20	141.73	0.76121	0.82717	1.2407	846.55	-0.31164	0.00052479	0.11439	
227.83	2.2000	14.090	0.070973	140.79	142.32	0.76380	0.82766	1.2415	844.33	-0.31075	0.00052068	0.11416	
228.31	2.2000	14.077	0.071039	141.38	142.91	0.76639	0.82815	1.2422	842.11	-0.30985	0.00051662	0.11392	
228.78	2.2000	14.064	0.071105	141.96	143.50	0.76897	0.82864	1.2430	839.89	-0.30895	0.00051260	0.11369	
229.26	2.2000	14.051	0.071172	142.55	144.09	0.77155	0.82913	1.2437	837.68	-0.30804	0.00050864	0.11346	
229.73	2.2000	14.037	0.071238	143.14	144.68	0.77413	0.82962	1.2445	835.46	-0.30712	0.00050472	0.11322	
230.21	2.2000	14.024	0.071305	143.73	145.27	0.77670	0.83012	1.2452	833.25	-0.30620	0.00050084	0.11299	
230.68	2.2000	14.011	0.071372	144.32	145.86	0.77927	0.83061	1.2460	831.04	-0.30527	0.00049702	0.11276	
231.16	2.2000	13.998	0.071439	144.92	146.46	0.78184	0.83111	1.2468	828.83	-0.30433	0.00049323	0.11253	
231.63	2.2000	13.985	0.071506	145.51	147.05	0.78440	0.83161	1.2476	826.62	-0.30339	0.00048949	0.11229	
232.11	2.2000	13.972	0.071574	146.10	147.64	0.78696	0.83210	1.2483	824.41	-0.30244	0.00048580	0.11206	
232.58	2.2000	13.958	0.071642	146.69	148.24	0.78951	0.83260	1.2491	822.21	-0.30149	0.00048214	0.11183	
233.06	2.2000	13.945	0.071710	147.28	148.83	0.79206	0.83311	1.2499	820.00	-0.30052	0.00047853	0.11160	
233.53	2.2000	13.932	0.071778	147.88	149.42	0.79461	0.83361	1.2507	817.80	-0.29955	0.00047496	0.11137	
234.01	2.2000	13.919	0.071846	148.47	150.02	0.79715	0.83411	1.2515	815.60	-0.29858	0.00047142	0.11114	
234.48	2.2000	13.905	0.071915	149.06	150.61	0.79969	0.83462	1.2523	813.40	-0.29760	0.00046793	0.11091	
234.96	2.2000	13.892	0.071984	149.66	151.21	0.80223	0.83512	1.2531	811.20	-0.29661	0.00046448	0.11068	
235.43	2.2000	13.879	0.072053	150.25	151.80	0.80476	0.83563	1.2539	809.01	-0.29561	0.00046106	0.11045	
235.91	2.2000	13.865	0.072122	150.85	152.40	0.80729	0.83614	1.2547	806.81	-0.29461	0.00045768	0.11023	
236.38	2.2000	13.852	0.072191	151.44	153.00	0.80981	0.83665	1.2555	804.62	-0.29359	0.00045434	0.11000	
236.86	2.2000	13.839	0.072261	152.04	153.59	0.81234	0.83716	1.2563	802.42	-0.29258	0.00045104	0.10977	
237.34	2.2000	13.825	0.072331	152.63	154.19	0.81486	0.83767	1.2571	800.23	-0.29155	0.00044777	0.10954	
237.81	2.2000	13.812	0.072401	153.23	154.79	0.81737	0.83818	1.2579	798.04	-0.29052	0.00044453	0.10931	
238.29	2.2000	13.799	0.072471	153.82	155.39	0.81988	0.83869	1.2587	795.85	-0.28948	0.00044134	0.10909	
238.76	2.2000	13.785	0.072542	154.42	155.98	0.82239	0.83920	1.2596	793.67	-0.28843	0.00043817	0.10886	
239.24	2.2000	13.772	0.072612	155.02	156.58	0.82490	0.83972	1.2604	791.48	-0.28737	0.00043504	0.10863	
239.71	2.2000	13.758	0.072683	155.62	157.18	0.82740	0.84024	1.2612	789.29	-0.28631	0.00043194	0.10841	
240.19	2.2000	13.745	0.072755	156.21	157.78	0.82990	0.84075	1.2620	787.11	-0.28524	0.00042887	0.10818	
240.66	2.2000	13.731	0.072826	156.81	158.38	0.83239	0.84127	1.2629	784.93	-0.28416	0.00042584	0.10796	
241.14	2.2000	13.718	0.072898	157.41	158.98	0.83489	0.84179	1.2637	782.75	-0.28307	0.00042284	0.10773	
241.61	2.2000	13.704	0.072969	158.01	159.58	0.83738	0.84231	1.2646	780.57	-0.28198	0.00041987	0.10751	
242.09	2.2000	13.691	0.073041	158.61	160.18	0.83986	0.84283	1.2654	778.39	-0.28087	0.00041693	0.10728	
242.56	2.2000	13.677	0.073114	159.21	160.79	0.84234	0.84335	1.2663	776.21	-0.27976	0.00041402	0.10706	
243.04	2.2000	13.664	0.073186	159.81	161.39	0.84482	0.84387	1.2671	774.03	-0.27864	0.00041114	0.10683	
243.51	2.2000	13.650	0.073259	160.41	161.99	0.84730	0.84440	1.2680	771.86	-0.27752	0.00040828	0.10661	
243.99	2.2000	13.637	0.073332	161.01	162.59	0.84977	0.84492	1.2689	769.68	-0.27638	0.00040546	0.10639	
244.46	2.2000	13.623	0.073405	161.61	163.20	0.85224	0.84545	1.2697	767.51	-0.27523	0.00040267	0.10616	
244.94	2.2000	13.609	0.073479	162.22	163.80	0.85471	0.84597	1.2706	765.33	-0.27408	0.00039990	0.10594	
245.41	2.2000	13.596	0.073553	162.82	164.40	0.85717	0.84650	1.2715	763.16	-0.27292	0.00039716	0.10572	
245.89	2.2000	13.582	0.073627	163.42	165.01	0.85963	0.84703	1.2724	760.99	-0.27175	0.00039445	0.10550	
246.37	2.2000	13.568	0.073701	164.02	165.61	0.86209	0.84756	1.2732	758.82	-0.27057	0.00039176	0.10528	
246.84	2.2000	13.555	0.073775	164.63	166.22	0.86455	0.84809	1.2741	756.65	-0.26938	0.00038910	0.10505	
247.32	2.2000	13.541	0.073850	165.23	166.82	0.86700	0.84862	1.2750	754.49	-0.26818	0.00038647	0.10483	
247.79	2.2000	13.527	0.073925	165.84	167.43	0.86945	0.84915	1.2759	752.32	-0.26697	0.00038386	0.10461	
248.27	2.2000	13.513	0.074000	166.44	168.04	0.87189	0.84968	1.2768	750.15	-0.26575	0.00038128	0.10439	
248.74	2.2000	13.500	0.074076	167.05	168.64	0.87433	0.85021	1.2777	747.99	-0.26453	0.00037872	0.10417	
249.22	2.2000	13.486	0.074152	167.65	169.25	0.87677	0.85075	1.2786	745.83	-0.26329	0.00037619	0.10395	
249.69	2.2000	13.472	0.074228	168.26	169.86	0.87921	0.85128	1.2795	743.66	-0.26204	0.00037368	0.10373	
250.17	2.2000	13.458	0.074304	168.87	170.47	0.88165	0.85182	1.2805	741.50	-0.26079	0.00037119	0.10351	
250.64	2.2000	13.444	0.074381	169.47	171.08	0.88408	0.85236	1.2814	739.34	-0.25952	0.00036873	0.10329	
251.12	2.2000	13.431	0.074457	170.08	171.69	0.88650	0.85289	1.2823	737.18	-0.25825	0.00036629	0.10307	
251.59	2.2000	13.417	0.074534	170.69	172.30	0.88893	0.85343	1.2832	735.02	-0.25696	0.00036387	0.10285	
252.07	2.2000	13.403	0.074612	171.30	172.91	0.89135	0.85397	1.2842	732.86	-0.25566	0.00036147	0.10264	
252.54	2.2000	13.389	0.074690	171.91	173.52	0.89377	0.85451	1.2851	730.70	-0.25436	0.00035910	0.10242	
253.02	2.2000	13.375	0.074767	172.52	174.13	0.89619	0.85505	1.2861	728.54	-0.25304	0.00035675	0.10220	
253.49	2.2000	13.361	0.074846	173.13	174.74	0.89860	0.85559	1.2870	726.39	-0.25171	0.00035442	0.10198	
253.97	2.2000	13.347	0.074924	173.74	175.35	0.90102	0.85614	1.2880	724.23	-0.25037	0.00035211	0.10176	
254.44	2.2000	13.333	0.075003	174.35	175.96	0.90342	0.85668	1.2889	722.07	-0.24902	0.00034982	0.10155	
254.92	2.2000	13.319	0.075082	174.96	176.58	0.90583	0.85723	1.2899	719.92	-0.24766	0.00034756	0.10133	
255.39	2.2000	13.305	0.075161	175.57	177.19	0.90823	0.85777	1.2909	717.77	-0.24629	0.00034531	0.10111	
255.87	2.2000	13.291	0.075241	176.18	177.80	0.91063	0.85832	1.2918	715.61	-0.24491	0.00034308	0.10090	
256.35	2.2000	13.277	0.075321	176.79	178.42	0.91303	0.85886	1.2928	713.46	-0.24351	0.00034087	0.10068	
256.82	2.2000	13.262	0.075401	177.41	179.03	0.91543	0.85941	1.2938	711.31	-0.24211	0.00033869	0.10046	
257.30	2.2000	13.248	0.075482	178.02	179.65	0.91782	0.85996	1.2948	709.15	-0.24069	0.00033652	0.10025	
257.77	2.2000	13.234	0.075563	178.63	180.26	0.92021	0.86051	1.2958	707.00	-0.23926	0.00033437	0.10003	
258.25	2.2000	13.220	0.075644	179.25	180.88	0.92260	0.86106	1.2968	704.85	-0.23782	0.00033224	0.099818	
258.72	2.2000	13.206	0.075725	179.86	181.50	0.92498	0.86161	1.2978	702.70	-0.23636	0.00033012	0.099603	
259.20	2.2000	13.191	0.075807	180.48	182.11	0.92737	0.86216	1.2988	700.55	-0.23490	0.00032803	0.099389	
259.67	2.2000	13.177	0.075889	181.09	182.73	0.92975	0.86272	1.2998	698.40	-0.23342	0.00032595	0.099174	
260.15	2.2000	13.163	0.075971	181.71	183.35	0.93212	0.86327	1.3008	696.25	-0.23193	0.00032389	0.098960	
260.62	2.2000	13.149	0.076054	182.33	183.97	0.93450	0.86383	1.3018	694.11	-0.23042	0.00032185	0.098746	
261.10	2.2000	13.134	0.076137	182.94	184.58	0.93687	0.86438	1.3029	691.96	-0.22890	0.00031982	0.098532	
261.57	2.2000	13.120	0.076220	183.56	185.20	0.93924	0.86494	1.3039	689.81	-0.22737	0.00031782	0.098318	
