function [t,s,h]=R134aisop_009
data=[
    169.85	0.090000	15.595	0.064122	71.439	71.495	0.41252	0.79224	1.1838	1120.3	-0.38152	0.0021568	0.14527	
170.33	0.090000	15.583	0.064173	72.001	72.058	0.41583	0.79204	1.1838	1117.9	-0.38122	0.0021134	0.14498	
170.80	0.090000	15.571	0.064223	72.564	72.621	0.41913	0.79187	1.1838	1115.5	-0.38092	0.0020715	0.14469	
171.28	0.090000	15.558	0.064274	73.127	73.183	0.42242	0.79170	1.1838	1113.1	-0.38061	0.0020311	0.14440	
171.75	0.090000	15.546	0.064325	73.689	73.746	0.42570	0.79156	1.1839	1110.6	-0.38030	0.0019922	0.14411	
172.23	0.090000	15.534	0.064376	74.252	74.309	0.42897	0.79143	1.1840	1108.2	-0.37997	0.0019545	0.14382	
172.70	0.090000	15.521	0.064427	74.814	74.871	0.43223	0.79132	1.1841	1105.8	-0.37964	0.0019182	0.14353	
173.18	0.090000	15.509	0.064478	75.377	75.434	0.43549	0.79122	1.1842	1103.4	-0.37931	0.0018830	0.14324	
173.65	0.090000	15.497	0.064529	75.940	75.997	0.43873	0.79114	1.1843	1101.0	-0.37896	0.0018489	0.14295	
174.13	0.090000	15.485	0.064580	76.503	76.560	0.44197	0.79107	1.1844	1098.6	-0.37861	0.0018160	0.14266	
174.60	0.090000	15.472	0.064632	77.066	77.123	0.44520	0.79102	1.1846	1096.1	-0.37826	0.0017841	0.14237	
175.08	0.090000	15.460	0.064683	77.629	77.686	0.44842	0.79097	1.1847	1093.7	-0.37789	0.0017531	0.14209	
175.55	0.090000	15.448	0.064735	78.192	78.249	0.45163	0.79095	1.1849	1091.3	-0.37752	0.0017231	0.14180	
176.03	0.090000	15.435	0.064787	78.755	78.812	0.45483	0.79093	1.1851	1088.9	-0.37715	0.0016940	0.14152	
176.50	0.090000	15.423	0.064839	79.318	79.375	0.45803	0.79093	1.1853	1086.5	-0.37677	0.0016657	0.14123	
176.98	0.090000	15.411	0.064891	79.881	79.938	0.46122	0.79094	1.1855	1084.0	-0.37638	0.0016383	0.14095	
177.45	0.090000	15.398	0.064943	80.445	80.502	0.46440	0.79096	1.1857	1081.6	-0.37599	0.0016116	0.14066	
177.93	0.090000	15.386	0.064995	81.008	81.065	0.46757	0.79099	1.1859	1079.2	-0.37559	0.0015857	0.14038	
178.40	0.090000	15.373	0.065047	81.572	81.629	0.47073	0.79104	1.1862	1076.8	-0.37518	0.0015605	0.14010	
178.88	0.090000	15.361	0.065099	82.135	82.193	0.47389	0.79109	1.1864	1074.4	-0.37477	0.0015360	0.13981	
179.35	0.090000	15.349	0.065152	82.699	82.757	0.47704	0.79116	1.1867	1072.0	-0.37435	0.0015122	0.13953	
179.83	0.090000	15.336	0.065205	83.263	83.321	0.48018	0.79124	1.1870	1069.5	-0.37393	0.0014889	0.13925	
180.31	0.090000	15.324	0.065257	83.827	83.885	0.48331	0.79132	1.1872	1067.1	-0.37350	0.0014663	0.13897	
180.78	0.090000	15.312	0.065310	84.392	84.449	0.48644	0.79142	1.1875	1064.7	-0.37307	0.0014443	0.13869	
181.26	0.090000	15.299	0.065363	84.956	85.014	0.48955	0.79153	1.1878	1062.3	-0.37263	0.0014228	0.13841	
181.73	0.090000	15.287	0.065416	85.521	85.578	0.49266	0.79165	1.1881	1059.9	-0.37218	0.0014019	0.13813	
182.21	0.090000	15.274	0.065469	86.085	86.143	0.49577	0.79177	1.1885	1057.5	-0.37173	0.0013815	0.13785	
182.68	0.090000	15.262	0.065522	86.650	86.708	0.49886	0.79191	1.1888	1055.0	-0.37128	0.0013616	0.13757	
183.16	0.090000	15.250	0.065576	87.215	87.273	0.50195	0.79205	1.1891	1052.6	-0.37082	0.0013422	0.13729	
183.63	0.090000	15.237	0.065629	87.780	87.838	0.50503	0.79221	1.1895	1050.2	-0.37035	0.0013233	0.13702	
184.11	0.090000	15.225	0.065683	88.346	88.404	0.50811	0.79237	1.1898	1047.8	-0.36988	0.0013048	0.13674	
184.58	0.090000	15.212	0.065736	88.911	88.969	0.51118	0.79254	1.1902	1045.4	-0.36940	0.0012867	0.13646	
185.06	0.090000	15.200	0.065790	89.477	89.535	0.51424	0.79272	1.1906	1043.0	-0.36892	0.0012691	0.13619	
185.53	0.090000	15.187	0.065844	90.043	90.101	0.51729	0.79291	1.1909	1040.6	-0.36843	0.0012518	0.13591	
186.01	0.090000	15.175	0.065898	90.609	90.667	0.52034	0.79310	1.1913	1038.2	-0.36794	0.0012350	0.13564	
186.48	0.090000	15.162	0.065952	91.175	91.233	0.52338	0.79330	1.1917	1035.8	-0.36744	0.0012185	0.13537	
186.96	0.090000	15.150	0.066007	91.741	91.800	0.52641	0.79351	1.1921	1033.4	-0.36694	0.0012024	0.13509	
187.43	0.090000	15.138	0.066061	92.308	92.366	0.52944	0.79373	1.1925	1031.0	-0.36644	0.0011867	0.13482	
187.91	0.090000	15.125	0.066116	92.875	92.933	0.53246	0.79395	1.1930	1028.6	-0.36592	0.0011712	0.13455	
188.38	0.090000	15.113	0.066170	93.442	93.500	0.53548	0.79418	1.1934	1026.2	-0.36541	0.0011562	0.13427	
188.86	0.090000	15.100	0.066225	94.009	94.067	0.53848	0.79442	1.1938	1023.8	-0.36489	0.0011414	0.13400	
189.34	0.090000	15.088	0.066280	94.576	94.635	0.54148	0.79466	1.1943	1021.4	-0.36436	0.0011270	0.13373	
189.81	0.090000	15.075	0.066335	95.144	95.203	0.54448	0.79491	1.1947	1019.0	-0.36383	0.0011128	0.13346	
190.29	0.090000	15.063	0.066390	95.712	95.771	0.54747	0.79517	1.1952	1016.6	-0.36329	0.0010990	0.13319	
190.76	0.090000	15.050	0.066445	96.280	96.339	0.55045	0.79543	1.1956	1014.2	-0.36275	0.0010854	0.13292	
191.24	0.090000	15.037	0.066500	96.848	96.907	0.55342	0.79570	1.1961	1011.8	-0.36221	0.0010721	0.13265	
191.71	0.090000	15.025	0.066556	97.417	97.475	0.55639	0.79598	1.1965	1009.4	-0.36166	0.0010591	0.13238	
192.19	0.090000	15.012	0.066612	97.986	98.044	0.55936	0.79626	1.1970	1007.0	-0.36110	0.0010464	0.13212	
192.66	0.090000	15.000	0.066667	98.554	98.613	0.56231	0.79654	1.1975	1004.6	-0.36054	0.0010339	0.13185	
193.14	0.090000	14.987	0.066723	99.124	99.183	0.56526	0.79683	1.1980	1002.3	-0.35998	0.0010216	0.13158	
193.61	0.090000	14.975	0.066779	99.693	99.752	0.56821	0.79713	1.1985	999.87	-0.35941	0.0010096	0.13132	
194.09	0.090000	14.962	0.066835	100.26	100.32	0.57115	0.79743	1.1990	997.48	-0.35884	0.00099777	0.13105	
194.56	0.090000	14.950	0.066891	100.83	100.89	0.57408	0.79774	1.1995	995.10	-0.35826	0.00098621	0.13078	
195.04	0.090000	14.937	0.066948	101.40	101.46	0.57701	0.79805	1.2000	992.72	-0.35767	0.00097486	0.13052	
195.51	0.090000	14.924	0.067004	101.97	102.03	0.57993	0.79837	1.2005	990.35	-0.35709	0.00096372	0.13025	
195.99	0.090000	14.912	0.067061	102.54	102.60	0.58284	0.79869	1.2010	987.97	-0.35649	0.00095279	0.12999	
196.46	0.090000	14.899	0.067118	103.11	103.17	0.58575	0.79902	1.2016	985.60	-0.35590	0.00094206	0.12972	
196.94	0.090000	14.887	0.067174	103.69	103.74	0.58866	0.79935	1.2021	983.23	-0.35530	0.00093153	0.12946	
197.41	0.090000	14.874	0.067231	104.26	104.32	0.59156	0.79968	1.2026	980.85	-0.35469	0.00092119	0.12920	
197.89	0.090000	14.861	0.067289	104.83	104.89	0.59445	0.80002	1.2032	978.49	-0.35408	0.00091104	0.12894	
198.36	0.090000	14.849	0.067346	105.40	105.46	0.59733	0.80037	1.2037	976.12	-0.35346	0.00090107	0.12867	
198.84	0.090000	14.836	0.067403	105.97	106.03	0.60022	0.80071	1.2043	973.75	-0.35284	0.00089127	0.12841	
199.32	0.090000	14.823	0.067461	106.55	106.60	0.60309	0.80107	1.2048	971.39	-0.35222	0.00088165	0.12815	
199.79	0.090000	14.811	0.067519	107.12	107.18	0.60596	0.80142	1.2054	969.03	-0.35159	0.00087220	0.12789	
200.27	0.090000	14.798	0.067576	107.69	107.75	0.60883	0.80178	1.2060	966.67	-0.35095	0.00086290	0.12763	
200.74	0.090000	14.785	0.067634	108.26	108.32	0.61169	0.80215	1.2065	964.31	-0.35032	0.00085377	0.12737	
201.22	0.090000	14.773	0.067692	108.84	108.90	0.61454	0.80251	1.2071	961.95	-0.34967	0.00084480	0.12711	
201.69	0.090000	14.760	0.067751	109.41	109.47	0.61739	0.80288	1.2077	959.60	-0.34902	0.00083597	0.12685	
202.17	0.090000	14.747	0.067809	109.99	110.05	0.62023	0.80326	1.2083	957.24	-0.34837	0.00082730	0.12659	
202.64	0.090000	14.735	0.067867	110.56	110.62	0.62307	0.80364	1.2089	954.89	-0.34771	0.00081876	0.12633	
203.12	0.090000	14.722	0.067926	111.13	111.19	0.62590	0.80402	1.2095	952.54	-0.34705	0.00081037	0.12608	
203.59	0.090000	14.709	0.067985	111.71	111.77	0.62873	0.80440	1.2101	950.19	-0.34638	0.00080212	0.12582	
204.07	0.090000	14.696	0.068044	112.28	112.34	0.63155	0.80479	1.2107	947.85	-0.34571	0.00079400	0.12556	
204.54	0.090000	14.684	0.068103	112.86	112.92	0.63437	0.80518	1.2113	945.50	-0.34503	0.00078602	0.12531	
205.02	0.090000	14.671	0.068162	113.44	113.50	0.63718	0.80558	1.2119	943.16	-0.34435	0.00077816	0.12505	
205.49	0.090000	14.658	0.068222	114.01	114.07	0.63999	0.80598	1.2125	940.82	-0.34367	0.00077043	0.12480	
205.97	0.090000	14.645	0.068281	114.59	114.65	0.64279	0.80638	1.2131	938.48	-0.34297	0.00076282	0.12454	
206.44	0.090000	14.633	0.068341	115.16	115.22	0.64558	0.80678	1.2137	936.14	-0.34228	0.00075533	0.12429	
206.92	0.090000	14.620	0.068401	115.74	115.80	0.64838	0.80719	1.2144	933.81	-0.34158	0.00074796	0.12403	
207.39	0.090000	14.607	0.068461	116.32	116.38	0.65116	0.80760	1.2150	931.47	-0.34087	0.00074070	0.12378	
207.87	0.090000	14.594	0.068521	116.90	116.96	0.65394	0.80801	1.2156	929.14	-0.34016	0.00073355	0.12352	
208.35	0.090000	14.581	0.068581	117.47	117.53	0.65672	0.80842	1.2163	926.81	-0.33944	0.00072652	0.12327	
208.82	0.090000	14.568	0.068641	118.05	118.11	0.65949	0.80884	1.2169	924.48	-0.33872	0.00071959	0.12302	
209.30	0.090000	14.556	0.068702	118.63	118.69	0.66226	0.80926	1.2175	922.15	-0.33800	0.00071276	0.12277	
209.77	0.090000	14.543	0.068763	119.21	119.27	0.66502	0.80968	1.2182	919.83	-0.33727	0.00070604	0.12252	
210.25	0.090000	14.530	0.068824	119.79	119.85	0.66778	0.81011	1.2188	917.51	-0.33653	0.00069942	0.12226	
210.72	0.090000	14.517	0.068885	120.37	120.43	0.67053	0.81054	1.2195	915.18	-0.33579	0.00069289	0.12201	
211.20	0.090000	14.504	0.068946	120.95	121.01	0.67328	0.81097	1.2202	912.86	-0.33504	0.00068647	0.12176	
211.67	0.090000	14.491	0.069007	121.53	121.59	0.67602	0.81140	1.2208	910.55	-0.33429	0.00068013	0.12151	
212.15	0.090000	14.478	0.069069	122.11	122.17	0.67876	0.81183	1.2215	908.23	-0.33354	0.00067389	0.12126	
212.62	0.090000	14.465	0.069130	122.69	122.75	0.68150	0.81227	1.2222	905.92	-0.33277	0.00066774	0.12101	
213.10	0.090000	14.452	0.069192	123.27	123.33	0.68423	0.81271	1.2228	903.60	-0.33201	0.00066168	0.12077	
213.57	0.090000	14.440	0.069254	123.85	123.91	0.68695	0.81315	1.2235	901.29	-0.33123	0.00065570	0.12052	
214.05	0.090000	14.427	0.069316	124.43	124.49	0.68967	0.81360	1.2242	898.98	-0.33046	0.00064981	0.12027	
214.52	0.090000	14.414	0.069379	125.01	125.08	0.69239	0.81404	1.2249	896.67	-0.32967	0.00064400	0.12002	
215.00	0.090000	14.401	0.069441	125.60	125.66	0.69510	0.81449	1.2256	894.37	-0.32888	0.00063827	0.11977	
215.47	0.090000	14.388	0.069504	126.18	126.24	0.69781	0.81494	1.2263	892.06	-0.32809	0.00063263	0.11953	
215.95	0.090000	14.375	0.069567	126.76	126.82	0.70051	0.81539	1.2270	889.76	-0.32729	0.00062706	0.11928	
216.42	0.090000	14.362	0.069630	127.34	127.41	0.70321	0.81585	1.2277	887.46	-0.32649	0.00062157	0.11904	
216.90	0.090000	14.349	0.069693	127.93	127.99	0.70590	0.81630	1.2284	885.16	-0.32568	0.00061615	0.11879	
217.37	0.090000	14.336	0.069756	128.51	128.57	0.70859	0.81676	1.2291	882.86	-0.32486	0.00061080	0.11854	
217.85	0.090000	14.323	0.069820	129.10	129.16	0.71127	0.81722	1.2298	880.57	-0.32404	0.00060553	0.11830	
218.33	0.090000	14.310	0.069884	129.68	129.74	0.71395	0.81768	1.2305	878.27	-0.32321	0.00060033	0.11805	
218.80	0.090000	14.296	0.069947	130.27	130.33	0.71663	0.81814	1.2312	875.98	-0.32238	0.00059520	0.11781	
219.28	0.090000	14.283	0.070012	130.85	130.91	0.71930	0.81861	1.2319	873.69	-0.32154	0.00059013	0.11757	
219.75	0.090000	14.270	0.070076	131.44	131.50	0.72197	0.81907	1.2327	871.40	-0.32069	0.00058514	0.11732	
220.23	0.090000	14.257	0.070140	132.02	132.08	0.72463	0.81954	1.2334	869.11	-0.31984	0.00058021	0.11708	
220.70	0.090000	14.244	0.070205	132.61	132.67	0.72729	0.82001	1.2341	866.82	-0.31899	0.00057534	0.11684	
221.18	0.090000	14.231	0.070270	133.20	133.26	0.72995	0.82048	1.2349	864.54	-0.31812	0.00057053	0.11660	
221.65	0.090000	14.218	0.070334	133.78	133.84	0.73260	0.82096	1.2356	862.25	-0.31726	0.00056579	0.11635	
222.13	0.090000	14.205	0.070400	134.37	134.43	0.73525	0.82143	1.2363	859.97	-0.31638	0.00056111	0.11611	
222.60	0.090000	14.191	0.070465	134.96	135.02	0.73789	0.82191	1.2371	857.69	-0.31550	0.00055649	0.11587	
223.08	0.090000	14.178	0.070530	135.55	135.61	0.74053	0.82239	1.2378	855.41	-0.31461	0.00055193	0.11563	
223.55	0.090000	14.165	0.070596	136.13	136.20	0.74317	0.82287	1.2386	853.13	-0.31372	0.00054742	0.11539	
224.03	0.090000	14.152	0.070662	136.72	136.79	0.74580	0.82335	1.2393	850.86	-0.31282	0.00054297	0.11515	
224.50	0.090000	14.139	0.070728	137.31	137.37	0.74842	0.82383	1.2401	848.58	-0.31191	0.00053857	0.11491	
224.98	0.090000	14.125	0.070794	137.90	137.96	0.75105	0.82431	1.2409	846.31	-0.31100	0.00053423	0.11467	
225.45	0.090000	14.112	0.070861	138.49	138.55	0.75367	0.82480	1.2416	844.04	-0.31008	0.00052995	0.11443	
225.93	0.090000	14.099	0.070928	139.08	139.14	0.75628	0.82529	1.2424	841.77	-0.30916	0.00052571	0.11419	
226.40	0.090000	14.086	0.070994	139.67	139.73	0.75889	0.82577	1.2432	839.50	-0.30823	0.00052153	0.11395	
226.88	0.090000	14.072	0.071061	140.26	140.33	0.76150	0.82626	1.2440	837.23	-0.30729	0.00051740	0.11372	
227.36	0.090000	14.059	0.071129	140.85	140.92	0.76410	0.82675	1.2447	834.96	-0.30634	0.00051332	0.11348	
227.83	0.090000	14.046	0.071196	141.45	141.51	0.76670	0.82725	1.2455	832.70	-0.30539	0.00050928	0.11324	
228.31	0.090000	14.032	0.071264	142.04	142.10	0.76930	0.82774	1.2463	830.44	-0.30443	0.00050530	0.11301	
228.78	0.090000	14.019	0.071332	142.63	142.69	0.77189	0.82824	1.2471	828.17	-0.30346	0.00050136	0.11277	
229.26	0.090000	14.006	0.071400	143.22	143.29	0.77448	0.82873	1.2479	825.91	-0.30249	0.00049747	0.11253	
229.73	0.090000	13.992	0.071468	143.82	143.88	0.77707	0.82923	1.2487	823.65	-0.30151	0.00049362	0.11230	
230.21	0.090000	13.979	0.071537	144.41	144.47	0.77965	0.82973	1.2495	821.39	-0.30052	0.00048982	0.11206	
230.68	0.090000	13.965	0.071605	145.00	145.07	0.78223	0.83023	1.2503	819.14	-0.29953	0.00048606	0.11183	
231.16	0.090000	13.952	0.071674	145.60	145.66	0.78480	0.83073	1.2511	816.88	-0.29853	0.00048234	0.11159	
231.63	0.090000	13.939	0.071743	146.19	146.26	0.78737	0.83123	1.2519	814.63	-0.29752	0.00047867	0.11136	
232.11	0.090000	13.925	0.071813	146.79	146.85	0.78994	0.83174	1.2527	812.37	-0.29650	0.00047504	0.11112	
232.58	0.090000	13.912	0.071882	147.38	147.45	0.79250	0.83224	1.2536	810.12	-0.29548	0.00047145	0.11089	
233.06	0.090000	13.898	0.071952	147.98	148.04	0.79506	0.83275	1.2544	807.87	-0.29445	0.00046790	0.11065	
233.53	0.090000	13.885	0.072022	148.58	148.64	0.79762	0.83325	1.2552	805.62	-0.29341	0.00046439	0.11042	
234.01	0.090000	13.871	0.072092	149.17	149.24	0.80017	0.83376	1.2561	803.37	-0.29236	0.00046092	0.11019	
234.48	0.090000	13.858	0.072163	149.77	149.83	0.80272	0.83427	1.2569	801.12	-0.29130	0.00045749	0.10996	
234.96	0.090000	13.844	0.072233	150.37	150.43	0.80526	0.83478	1.2577	798.87	-0.29024	0.00045410	0.10972	
235.43	0.090000	13.830	0.072304	150.97	151.03	0.80781	0.83529	1.2586	796.63	-0.28917	0.00045074	0.10949	
235.91	0.090000	13.817	0.072375	151.56	151.63	0.81035	0.83581	1.2594	794.38	-0.28809	0.00044742	0.10926	
236.38	0.090000	13.803	0.072446	152.16	152.23	0.81288	0.83632	1.2603	792.14	-0.28700	0.00044414	0.10903	
236.86	0.090000	13.790	0.072518	152.76	152.83	0.81541	0.83684	1.2611	789.90	-0.28591	0.00044089	0.10880	
237.34	0.090000	13.776	0.072590	153.36	153.42	0.81794	0.83735	1.2620	787.65	-0.28480	0.00043768	0.10857	
237.81	0.090000	13.762	0.072662	153.96	154.02	0.82047	0.83787	1.2629	785.41	-0.28369	0.00043450	0.10834	
238.29	0.090000	13.749	0.072734	154.56	154.63	0.82299	0.83839	1.2637	783.17	-0.28257	0.00043135	0.10811	
238.76	0.090000	13.735	0.072807	155.16	155.23	0.82551	0.83891	1.2646	780.94	-0.28144	0.00042824	0.10788	
239.24	0.090000	13.721	0.072879	155.76	155.83	0.82802	0.83943	1.2655	778.70	-0.28030	0.00042516	0.10765	
239.71	0.090000	13.708	0.072952	156.36	156.43	0.83054	0.83995	1.2664	776.46	-0.27915	0.00042211	0.10742	
240.19	0.090000	13.694	0.073026	156.97	157.03	0.83305	0.84047	1.2672	774.22	-0.27800	0.00041910	0.10719	
240.66	0.090000	13.680	0.073099	157.57	157.63	0.83555	0.84100	1.2681	771.99	-0.27683	0.00041611	0.10696	
241.14	0.090000	13.666	0.073173	158.17	158.24	0.83805	0.84152	1.2690	769.75	-0.27566	0.00041316	0.10673	
241.61	0.090000	13.652	0.073247	158.77	158.84	0.84055	0.84205	1.2699	767.52	-0.27447	0.00041023	0.10650	
242.09	0.090000	13.639	0.073321	159.38	159.44	0.84305	0.84257	1.2708	765.29	-0.27328	0.00040734	0.10628	
242.56	0.090000	13.625	0.073396	159.98	160.05	0.84554	0.84310	1.2717	763.06	-0.27208	0.00040447	0.10605	
243.04	0.090000	13.611	0.073470	160.59	160.65	0.84803	0.84363	1.2726	760.82	-0.27086	0.00040164	0.10582	
243.51	0.090000	13.597	0.073545	161.19	161.26	0.85052	0.84416	1.2736	758.59	-0.26964	0.00039883	0.10559	
243.99	0.090000	13.583	0.073621	161.80	161.86	0.85300	0.84469	1.2745	756.36	-0.26841	0.00039605	0.10537	
244.46	0.090000	13.569	0.073696	162.40	162.47	0.85549	0.84522	1.2754	754.13	-0.26717	0.00039330	0.10514	
244.52	0.090000	13.568	0.073705	162.47	162.54	0.85576	0.84528	1.2755	753.89	-0.26703	0.00039300	0.10511	
244.52	0.090000	0.046091	21.696	362.04	381.18	1.7499	0.68167	0.78545	145.35	47.756	9.6859e-06	0.0091028	
244.94	0.090000	0.045998	21.740	362.33	381.51	1.7513	0.68197	0.78549	145.50	47.337	9.7032e-06	0.0091365	
245.41	0.090000	0.045893	21.790	362.66	381.88	1.7528	0.68233	0.78556	145.66	46.875	9.7226e-06	0.0091744	
245.89	0.090000	0.045789	21.839	362.99	382.26	1.7543	0.68271	0.78566	145.83	46.423	9.7419e-06	0.0092123	
246.37	0.090000	0.045686	21.889	363.32	382.63	1.7559	0.68311	0.78578	145.99	45.980	9.7613e-06	0.0092501	
246.84	0.090000	0.045583	21.938	363.65	383.00	1.7574	0.68352	0.78592	146.15	45.545	9.7806e-06	0.0092880	
247.32	0.090000	0.045481	21.987	363.98	383.38	1.7589	0.68394	0.78608	146.31	45.119	9.7999e-06	0.0093259	
247.79	0.090000	0.045380	22.036	364.31	383.75	1.7604	0.68438	0.78627	146.47	44.701	9.8193e-06	0.0093638	
248.27	0.090000	0.045279	22.085	364.64	384.12	1.7619	0.68484	0.78647	146.63	44.291	9.8386e-06	0.0094017	
248.74	0.090000	0.045178	22.134	364.97	384.50	1.7634	0.68530	0.78670	146.79	43.888	9.8579e-06	0.0094396	
249.22	0.090000	0.045079	22.183	365.30	384.87	1.7649	0.68578	0.78694	146.95	43.493	9.8772e-06	0.0094775	
249.69	0.090000	0.044979	22.232	365.63	385.24	1.7664	0.68628	0.78720	147.11	43.106	9.8964e-06	0.0095154	
250.17	0.090000	0.044881	22.281	365.97	385.62	1.7679	0.68678	0.78748	147.27	42.725	9.9157e-06	0.0095533	
250.64	0.090000	0.044783	22.330	366.30	385.99	1.7694	0.68729	0.78777	147.43	42.350	9.9350e-06	0.0095912	
251.12	0.090000	0.044685	22.379	366.63	386.37	1.7709	0.68782	0.78808	147.59	41.983	9.9542e-06	0.0096291	
251.59	0.090000	0.044588	22.428	366.96	386.74	1.7724	0.68835	0.78841	147.74	41.621	9.9735e-06	0.0096670	
252.07	0.090000	0.044492	22.476	367.29	387.12	1.7739	0.68890	0.78875	147.90	41.266	9.9927e-06	0.0097049	
252.54	0.090000	0.044395	22.525	367.62	387.49	1.7753	0.68945	0.78910	148.06	40.917	1.0012e-05	0.0097428	
253.02	0.090000	0.044300	22.573	367.96	387.87	1.7768	0.69002	0.78947	148.21	40.573	1.0031e-05	0.0097807	
253.49	0.090000	0.044205	22.622	368.29	388.24	1.7783	0.69059	0.78984	148.37	40.235	1.0050e-05	0.0098186	
253.97	0.090000	0.044110	22.670	368.62	388.62	1.7798	0.69117	0.79024	148.53	39.903	1.0070e-05	0.0098565	
254.44	0.090000	0.044016	22.719	368.95	388.99	1.7813	0.69176	0.79064	148.68	39.576	1.0089e-05	0.0098945	
254.92	0.090000	0.043923	22.767	369.29	389.37	1.7827	0.69235	0.79105	148.84	39.254	1.0108e-05	0.0099324	
255.39	0.090000	0.043830	22.815	369.62	389.75	1.7842	0.69296	0.79148	148.99	38.936	1.0127e-05	0.0099703	
255.87	0.090000	0.043737	22.864	369.95	390.12	1.7857	0.69357	0.79191	149.14	38.624	1.0146e-05	0.010008	
256.35	0.090000	0.043645	22.912	370.29	390.50	1.7872	0.69419	0.79236	149.30	38.317	1.0165e-05	0.010046	
256.82	0.090000	0.043554	22.960	370.62	390.87	1.7886	0.69481	0.79281	149.45	38.014	1.0185e-05	0.010084	
257.30	0.090000	0.043462	23.008	370.96	391.25	1.7901	0.69544	0.79328	149.60	37.715	1.0204e-05	0.010122	
257.77	0.090000	0.043372	23.056	371.29	391.63	1.7916	0.69607	0.79375	149.76	37.421	1.0223e-05	0.010160	
