function [t,p,s,h,t2,p2,s2,h2]=R134aSaturationLine
data=[
169.85	0.00038960	15.594	0.064126	71.456	71.456	0.41262	0.79221	1.1838	1120.0	-0.38145	0.0021535	0.14524	0.028072	0.00027614	3621.4	321.11	334.94	1.9639	0.50296	0.58530	126.79	373.56	6.8294e-06	0.0030802
201.67	0.0071544	14.759	0.067754	109.40	109.41	0.61733	0.80284	1.2078	959.34	-0.34894	0.00083571	0.12683	0.022682	0.0042960	232.78	337.77	354.10	1.8307	0.57712	0.66280	136.44	111.61	8.0791e-06	0.0056316
211.12	0.013919	14.505	0.068943	120.88	120.89	0.67295	0.81088	1.2202	912.85	-0.33502	0.00068691	0.12177	0.021127	0.0080160	124.75	343.01	360.03	1.8057	0.59926	0.68705	138.91	87.874	8.4422e-06	0.0063922
217.28	0.020684	14.337	0.069750	128.41	128.43	0.70814	0.81665	1.2290	882.97	-0.32488	0.00061143	0.11856	0.020127	0.011615	86.097	346.47	363.93	1.7920	0.61385	0.70345	140.39	76.739	8.6760e-06	0.0068884
221.95	0.027449	14.208	0.070382	134.17	134.19	0.73435	0.82124	1.2362	860.49	-0.31656	0.00056248	0.11618	0.019375	0.015137	66.064	349.12	366.89	1.7828	0.62506	0.71632	141.43	69.842	8.8520e-06	0.0072655
225.76	0.034214	14.103	0.070909	138.89	138.91	0.75541	0.82510	1.2422	842.28	-0.30935	0.00052693	0.11426	0.018766	0.018604	53.753	351.28	369.31	1.7760	0.63430	0.72712	142.23	64.987	8.9945e-06	0.0075736
228.99	0.040979	14.012	0.071368	142.91	142.94	0.77313	0.82845	1.2476	826.88	-0.30289	0.00049934	0.11264	0.018252	0.022028	45.397	353.13	371.37	1.7706	0.64225	0.73654	142.87	61.306	9.1151e-06	0.0078360
231.82	0.047743	13.932	0.071776	146.45	146.48	0.78847	0.83143	1.2523	813.47	-0.29699	0.00047699	0.11124	0.017805	0.025418	39.342	354.75	373.16	1.7663	0.64926	0.74498	143.39	58.375	9.2200e-06	0.0080658
234.35	0.054508	13.861	0.072146	149.61	149.65	0.80203	0.83412	1.2567	801.56	-0.29150	0.00045831	0.11001	0.017409	0.028780	34.747	356.20	374.76	1.7626	0.65558	0.75267	143.84	55.960	9.3132e-06	0.0082710
236.63	0.061273	13.796	0.072487	152.48	152.52	0.81422	0.83658	1.2608	790.82	-0.28635	0.00044233	0.10890	0.017052	0.032117	31.136	357.51	376.21	1.7595	0.66135	0.75977	144.21	53.920	9.3972e-06	0.0084570
238.72	0.068038	13.736	0.072803	155.11	155.16	0.82531	0.83886	1.2646	781.01	-0.28147	0.00042842	0.10789	0.016726	0.035434	28.221	358.71	377.53	1.7568	0.66667	0.76640	144.54	52.162	9.4739e-06	0.0086275
240.65	0.074803	13.680	0.073099	157.55	157.61	0.83549	0.84098	1.2681	771.97	-0.27682	0.00041615	0.10696	0.016427	0.038734	25.817	359.82	378.74	1.7544	0.67162	0.77262	144.83	50.623	9.5446e-06	0.0087853
242.44	0.081567	13.628	0.073377	159.83	159.89	0.84491	0.84296	1.2715	763.58	-0.27236	0.00040518	0.10610	0.016149	0.042017	23.800	360.85	379.87	1.7523	0.67626	0.77851	145.08	49.260	9.6102e-06	0.0089323
244.12	0.088332	13.579	0.073642	161.96	162.03	0.85368	0.84483	1.2747	755.75	-0.26807	0.00039529	0.10530	0.015890	0.045287	22.081	361.81	380.93	1.7504	0.68063	0.78411	145.30	48.038	9.6714e-06	0.0090701
245.70	0.095097	13.533	0.073893	163.98	164.05	0.86191	0.84661	1.2778	748.38	-0.26392	0.00038630	0.10456	0.015648	0.048544	20.600	362.72	381.92	1.7486	0.68477	0.78946	145.50	46.935	9.7290e-06	0.0092001
247.19	0.10186	13.489	0.074133	165.88	165.96	0.86965	0.84829	1.2808	741.43	-0.25989	0.00037807	0.10385	0.015419	0.051791	19.309	363.57	382.85	1.7471	0.68870	0.79459	145.68	45.931	9.7833e-06	0.0093231
248.61	0.10863	13.447	0.074364	167.70	167.78	0.87696	0.84990	1.2836	734.85	-0.25598	0.00037049	0.10319	0.015203	0.055027	18.173	364.39	383.74	1.7456	0.69246	0.79952	145.84	45.011	9.8348e-06	0.0094400
249.96	0.11539	13.407	0.074585	169.43	169.51	0.88390	0.85144	1.2864	728.59	-0.25217	0.00036347	0.10255	0.014997	0.058254	17.166	365.16	384.57	1.7443	0.69605	0.80428	145.98	44.164	9.8837e-06	0.0095515
251.24	0.12216	13.369	0.074799	171.08	171.17	0.89051	0.85291	1.2890	722.61	-0.24844	0.00035695	0.10195	0.014802	0.061474	16.267	365.90	385.37	1.7431	0.69950	0.80888	146.11	43.379	9.9304e-06	0.0096582
252.48	0.12892	13.332	0.075006	172.67	172.77	0.89681	0.85433	1.2916	716.90	-0.24480	0.00035085	0.10138	0.014615	0.064686	15.459	366.60	386.14	1.7419	0.70282	0.81334	146.22	42.650	9.9751e-06	0.0097605
253.66	0.13569	13.297	0.075206	174.20	174.30	0.90285	0.85570	1.2941	711.43	-0.24122	0.00034514	0.10083	0.014436	0.067891	14.729	367.28	386.87	1.7409	0.70602	0.81767	146.32	41.969	1.0018e-05	0.0098589
254.80	0.14245	13.263	0.075400	175.67	175.77	0.90863	0.85702	1.2966	706.16	-0.23772	0.00033976	0.10031	0.014265	0.071091	14.067	367.93	387.57	1.7399	0.70911	0.82188	146.42	41.332	1.0059e-05	0.0099536
255.89	0.14922	13.229	0.075589	177.09	177.20	0.91419	0.85830	1.2990	701.10	-0.23427	0.00033469	0.099803	0.014100	0.074285	13.462	368.56	388.24	1.7389	0.71210	0.82599	146.50	40.733	1.0099e-05	0.010045
256.95	0.15598	13.197	0.075772	178.46	178.57	0.91954	0.85954	1.3013	696.21	-0.23088	0.00032989	0.099317	0.013941	0.077473	12.908	369.16	388.89	1.7381	0.71500	0.82999	146.57	40.169	1.0137e-05	0.010133
257.97	0.16275	13.166	0.075951	179.79	179.91	0.92470	0.86074	1.3036	691.49	-0.22754	0.00032534	0.098848	0.013788	0.080658	12.398	369.74	389.52	1.7372	0.71781	0.83390	146.64	39.635	1.0174e-05	0.010219
258.96	0.16951	13.136	0.076126	181.07	181.20	0.92968	0.86190	1.3058	686.93	-0.22425	0.00032102	0.098395	0.013641	0.083838	11.928	370.31	390.12	1.7365	0.72054	0.83773	146.70	39.131	1.0210e-05	0.010302
259.92	0.17627	13.107	0.076297	182.32	182.45	0.93450	0.86304	1.3080	682.50	-0.22100	0.00031690	0.097958	0.013498	0.087014	11.492	370.85	390.71	1.7357	0.72320	0.84147	146.75	38.652	1.0245e-05	0.010383
260.85	0.18304	13.078	0.076464	183.54	183.68	0.93917	0.86414	1.3102	678.21	-0.21779	0.00031298	0.097534	0.013359	0.090187	11.088	371.38	391.27	1.7350	0.72579	0.84514	146.79	38.196	1.0278e-05	0.010461
261.76	0.18980	13.050	0.076628	184.72	184.86	0.94369	0.86522	1.3123	674.05	-0.21461	0.00030922	0.097123	0.013225	0.093357	10.712	371.90	391.82	1.7343	0.72832	0.84874	146.83	37.762	1.0311e-05	0.010538
262.64	0.19657	13.023	0.076788	185.87	186.02	0.94809	0.86627	1.3143	669.99	-0.21147	0.00030562	0.096724	0.013095	0.096524	10.360	372.40	392.35	1.7337	0.73078	0.85227	146.87	37.348	1.0343e-05	0.010612
263.49	0.20333	12.996	0.076945	187.00	187.15	0.95236	0.86730	1.3164	666.05	-0.20837	0.00030217	0.096336	0.012969	0.099689	10.031	372.88	392.87	1.7331	0.73318	0.85575	146.90	36.953	1.0374e-05	0.010685
264.33	0.21010	12.970	0.077099	188.09	188.25	0.95651	0.86830	1.3184	662.21	-0.20529	0.00029886	0.095959	0.012846	0.10285	9.7228	373.35	393.37	1.7325	0.73554	0.85916	146.92	36.574	1.0404e-05	0.010755
265.14	0.21686	12.945	0.077251	189.16	189.33	0.96056	0.86928	1.3204	658.46	-0.20224	0.00029568	0.095592	0.012726	0.10601	9.4329	373.81	393.86	1.7320	0.73784	0.86252	146.94	36.211	1.0434e-05	0.010825
265.94	0.22363	12.920	0.077400	190.21	190.38	0.96450	0.87024	1.3223	654.81	-0.19922	0.00029261	0.095234	0.012609	0.10917	9.1600	374.26	394.34	1.7315	0.74009	0.86583	146.96	35.863	1.0463e-05	0.010892
266.71	0.23039	12.895	0.077546	191.23	191.41	0.96834	0.87118	1.3243	651.24	-0.19622	0.00028965	0.094886	0.012495	0.11233	8.9026	374.70	394.80	1.7309	0.74229	0.86909	146.97	35.528	1.0491e-05	0.010959
267.47	0.23716	12.872	0.077691	192.23	192.41	0.97209	0.87210	1.3262	647.75	-0.19324	0.00028680	0.094545	0.012384	0.11548	8.6593	375.13	395.25	1.7305	0.74445	0.87230	146.98	35.206	1.0519e-05	0.011024
268.21	0.24392	12.848	0.077833	193.21	193.40	0.97576	0.87301	1.3280	644.34	-0.19028	0.00028404	0.094213	0.012276	0.11864	8.4291	375.55	395.70	1.7300	0.74658	0.87547	146.99	34.896	1.0546e-05	0.011087
268.94	0.25069	12.825	0.077973	194.18	194.37	0.97934	0.87390	1.3299	641.00	-0.18735	0.00028138	0.093888	0.012170	0.12179	8.2108	375.95	396.13	1.7295	0.74866	0.87859	146.99	34.598	1.0572e-05	0.011150
269.65	0.25745	12.802	0.078111	195.12	195.32	0.98284	0.87477	1.3317	637.73	-0.18443	0.00027880	0.093570	0.012066	0.12494	8.0037	376.35	396.55	1.7291	0.75070	0.88168	146.99	34.309	1.0598e-05	0.011211
270.35	0.26422	12.780	0.078247	196.04	196.25	0.98627	0.87563	1.3336	634.52	-0.18153	0.00027630	0.093259	0.011965	0.12809	7.8067	376.74	396.96	1.7287	0.75271	0.88473	146.98	34.031	1.0623e-05	0.011271
271.03	0.27098	12.758	0.078381	196.95	197.16	0.98962	0.87647	1.3354	631.38	-0.17865	0.00027387	0.092955	0.011866	0.13125	7.6193	377.13	397.36	1.7283	0.75468	0.88774	146.98	33.762	1.0648e-05	0.011330
271.70	0.27775	12.737	0.078514	197.84	198.06	0.99291	0.87730	1.3371	628.30	-0.17579	0.00027152	0.092656	0.011769	0.13440	7.4407	377.50	397.76	1.7279	0.75662	0.89072	146.97	33.502	1.0673e-05	0.011388
272.36	0.28451	12.715	0.078644	198.72	198.94	0.99613	0.87811	1.3389	625.28	-0.17293	0.00026924	0.092364	0.011674	0.13755	7.2702	377.87	398.14	1.7275	0.75853	0.89366	146.96	33.250	1.0697e-05	0.011445
273.01	0.29128	12.695	0.078774	199.58	199.81	0.99930	0.87891	1.3406	622.31	-0.17010	0.00026702	0.092077	0.011581	0.14070	7.1074	378.23	398.52	1.7272	0.76040	0.89658	146.94	33.006	1.0721e-05	0.011502
273.64	0.29804	12.674	0.078902	200.43	200.66	1.0024	0.87970	1.3424	619.39	-0.16727	0.00026486	0.091796	0.011489	0.14385	6.9518	378.58	398.89	1.7268	0.76225	0.89946	146.93	32.769	1.0744e-05	0.011557
274.26	0.30481	12.654	0.079028	201.26	201.50	1.0054	0.88048	1.3441	616.53	-0.16446	0.00026276	0.091520	0.011400	0.14700	6.8028	378.93	399.25	1.7265	0.76407	0.90232	146.91	32.540	1.0767e-05	0.011611
274.88	0.31157	12.634	0.079153	202.08	202.32	1.0084	0.88125	1.3458	613.71	-0.16166	0.00026071	0.091249	0.011311	0.15015	6.6600	379.27	399.61	1.7261	0.76586	0.90514	146.89	32.317	1.0790e-05	0.011665
275.48	0.31834	12.614	0.079277	202.89	203.14	1.0114	0.88200	1.3475	610.94	-0.15887	0.00025872	0.090983	0.011225	0.15330	6.5231	379.61	399.96	1.7258	0.76763	0.90794	146.87	32.100	1.0812e-05	0.011718
276.07	0.32510	12.595	0.079399	203.69	203.94	1.0143	0.88275	1.3492	608.22	-0.15609	0.00025678	0.090721	0.011140	0.15645	6.3918	379.93	400.30	1.7255	0.76937	0.91072	146.84	31.890	1.0834e-05	0.011770
276.66	0.33187	12.575	0.079520	204.47	204.73	1.0171	0.88348	1.3508	605.54	-0.15331	0.00025488	0.090463	0.011057	0.15960	6.2655	380.26	400.64	1.7252	0.77109	0.91347	146.82	31.686	1.0856e-05	0.011822
277.23	0.33863	12.557	0.079640	205.24	205.51	1.0199	0.88421	1.3525	602.90	-0.15055	0.00025303	0.090210	0.010975	0.16276	6.1442	380.57	400.97	1.7249	0.77278	0.91620	146.79	31.487	1.0877e-05	0.011872
277.80	0.34540	12.538	0.079759	206.00	206.27	1.0226	0.88492	1.3541	600.29	-0.14780	0.00025123	0.089961	0.010894	0.16591	6.0274	380.89	401.29	1.7246	0.77446	0.91890	146.76	31.293	1.0898e-05	0.011922
278.36	0.35216	12.519	0.079876	206.76	207.03	1.0253	0.88563	1.3558	597.73	-0.14505	0.00024946	0.089716	0.010815	0.16906	5.9149	381.19	401.61	1.7244	0.77611	0.92158	146.73	31.105	1.0919e-05	0.011972
278.90	0.35892	12.501	0.079993	207.50	207.78	1.0280	0.88633	1.3574	595.21	-0.14231	0.00024774	0.089475	0.010737	0.17222	5.8066	381.50	401.92	1.7241	0.77773	0.92425	146.70	30.921	1.0939e-05	0.012021
279.45	0.36569	12.483	0.080108	208.23	208.51	1.0306	0.88702	1.3590	592.72	-0.13958	0.00024605	0.089237	0.010660	0.17537	5.7021	381.79	402.23	1.7238	0.77934	0.92689	146.66	30.742	1.0959e-05	0.012069
279.98	0.37245	12.465	0.080223	208.95	209.24	1.0332	0.88770	1.3606	590.27	-0.13685	0.00024440	0.089003	0.010584	0.17853	5.6013	382.09	402.53	1.7236	0.78093	0.92951	146.63	30.567	1.0979e-05	0.012117
280.51	0.37922	12.448	0.080337	209.66	209.96	1.0357	0.88837	1.3622	587.85	-0.13413	0.00024279	0.088773	0.010510	0.18169	5.5039	382.38	402.83	1.7233	0.78250	0.93212	146.59	30.397	1.0999e-05	0.012164
281.03	0.38598	12.430	0.080449	210.36	210.67	1.0382	0.88904	1.3638	585.46	-0.13142	0.00024121	0.088545	0.010436	0.18485	5.4099	382.66	403.13	1.7231	0.78405	0.93470	146.55	30.231	1.1019e-05	0.012210
281.54	0.39275	12.413	0.080561	211.06	211.37	1.0407	0.88969	1.3653	583.10	-0.12871	0.00023966	0.088321	0.010364	0.18801	5.3189	382.94	403.41	1.7228	0.78558	0.93727	146.52	30.068	1.1038e-05	0.012256
282.04	0.39951	12.396	0.080672	211.75	212.06	1.0432	0.89035	1.3669	580.78	-0.12600	0.00023814	0.088100	0.010293	0.19117	5.2309	383.22	403.70	1.7226	0.78710	0.93982	146.48	29.910	1.1057e-05	0.012302
282.54	0.40628	12.379	0.080782	212.42	212.75	1.0456	0.89099	1.3685	578.48	-0.12330	0.00023666	0.087882	0.010223	0.19433	5.1458	383.49	403.98	1.7224	0.78860	0.94236	146.43	29.755	1.1076e-05	0.012347
283.04	0.41304	12.362	0.080891	213.09	213.42	1.0479	0.89163	1.3700	576.21	-0.12060	0.00023520	0.087667	0.010153	0.19750	5.0633	383.76	404.25	1.7222	0.79008	0.94488	146.39	29.603	1.1095e-05	0.012392
283.52	0.41981	12.346	0.081000	213.76	214.09	1.0503	0.89226	1.3716	573.97	-0.11791	0.00023377	0.087455	0.010085	0.20066	4.9835	384.02	404.53	1.7219	0.79155	0.94739	146.35	29.455	1.1113e-05	0.012436
284.00	0.42657	12.329	0.081107	214.41	214.75	1.0526	0.89288	1.3731	571.76	-0.11522	0.00023237	0.087245	0.010018	0.20383	4.9060	384.28	404.79	1.7217	0.79300	0.94988	146.30	29.311	1.1131e-05	0.012480
284.48	0.43334	12.313	0.081214	215.06	215.41	1.0549	0.89350	1.3746	569.57	-0.11253	0.00023099	0.087038	0.0099514	0.20700	4.8309	384.54	405.06	1.7215	0.79443	0.95236	146.26	29.169	1.1150e-05	0.012523
284.95	0.44010	12.297	0.081320	215.70	216.05	1.0571	0.89411	1.3762	567.41	-0.10985	0.00022964	0.086834	0.0098858	0.21017	4.7580	384.80	405.32	1.7213	0.79585	0.95482	146.21	29.030	1.1167e-05	0.012566
285.41	0.44687	12.281	0.081426	216.34	216.69	1.0593	0.89472	1.3777	565.28	-0.10716	0.00022831	0.086632	0.0098211	0.21334	4.6873	385.05	405.57	1.7211	0.79726	0.95727	146.16	28.894	1.1185e-05	0.012609
285.87	0.45363	12.265	0.081531	216.96	217.33	1.0615	0.89532	1.3792	563.16	-0.10448	0.00022701	0.086432	0.0097572	0.21652	4.6185	385.29	405.83	1.7209	0.79865	0.95971	146.12	28.762	1.1203e-05	0.012651
286.33	0.46040	12.250	0.081635	217.58	217.95	1.0637	0.89591	1.3807	561.08	-0.10181	0.00022573	0.086235	0.0096941	0.21970	4.5518	385.54	406.08	1.7207	0.80003	0.96214	146.07	28.631	1.1220e-05	0.012693
286.77	0.46716	12.234	0.081738	218.20	218.57	1.0659	0.89650	1.3822	559.01	-0.099129	0.00022447	0.086041	0.0096318	0.22287	4.4868	385.78	406.32	1.7206	0.80140	0.96455	146.02	28.504	1.1238e-05	0.012734
287.22	0.47393	12.219	0.081841	218.81	219.19	1.0680	0.89709	1.3837	556.97	-0.096453	0.00022323	0.085848	0.0095703	0.22605	4.4237	386.02	406.57	1.7204	0.80275	0.96696	145.97	28.379	1.1255e-05	0.012775
287.66	0.48069	12.204	0.081944	219.41	219.80	1.0701	0.89766	1.3852	554.95	-0.093778	0.00022202	0.085658	0.0095095	0.22924	4.3623	386.25	406.80	1.7202	0.80409	0.96935	145.91	28.256	1.1272e-05	0.012816
288.09	0.48746	12.188	0.082045	220.01	220.40	1.0722	0.89824	1.3867	552.95	-0.091104	0.00022082	0.085470	0.0094494	0.23242	4.3025	386.49	407.04	1.7200	0.80542	0.97173	145.86	28.136	1.1289e-05	0.012856
288.52	0.49422	12.173	0.082147	220.60	221.00	1.0742	0.89881	1.3881	550.97	-0.088431	0.00021964	0.085284	0.0093900	0.23561	4.2444	386.72	407.27	1.7198	0.80673	0.97411	145.81	28.018	1.1305e-05	0.012896
288.95	0.50099	12.158	0.082247	221.18	221.59	1.0762	0.89937	1.3896	549.01	-0.085758	0.00021848	0.085100	0.0093314	0.23880	4.1877	386.94	407.50	1.7197	0.80804	0.97647	145.75	27.903	1.1322e-05	0.012936
289.37	0.50775	12.144	0.082347	221.76	222.17	1.0782	0.89993	1.3911	547.07	-0.083085	0.00021734	0.084917	0.0092734	0.24199	4.1325	387.17	407.73	1.7195	0.80933	0.97882	145.70	27.789	1.1338e-05	0.012975
289.78	0.51452	12.129	0.082447	222.34	222.75	1.0802	0.90048	1.3926	545.14	-0.080412	0.00021622	0.084737	0.0092160	0.24518	4.0786	387.39	407.96	1.7193	0.81061	0.98117	145.64	27.678	1.1355e-05	0.013014
290.20	0.52128	12.115	0.082546	222.91	223.33	1.0822	0.90103	1.3940	543.24	-0.077739	0.00021511	0.084559	0.0091593	0.24838	4.0262	387.61	408.18	1.7192	0.81188	0.98350	145.59	27.569	1.1371e-05	0.013053
290.60	0.52805	12.100	0.082644	223.47	223.90	1.0841	0.90158	1.3955	541.36	-0.075065	0.00021402	0.084382	0.0091032	0.25157	3.9750	387.83	408.40	1.7190	0.81314	0.98583	145.53	27.461	1.1387e-05	0.013092
291.01	0.53481	12.086	0.082742	224.03	224.47	1.0861	0.90212	1.3970	539.49	-0.072390	0.00021295	0.084208	0.0090478	0.25477	3.9251	388.04	408.61	1.7189	0.81439	0.98815	145.47	27.356	1.1403e-05	0.013130
291.41	0.54157	12.071	0.082840	224.59	225.03	1.0880	0.90266	1.3984	537.64	-0.069715	0.00021189	0.084035	0.0089929	0.25798	3.8763	388.25	408.83	1.7187	0.81563	0.99046	145.42	27.252	1.1419e-05	0.013168
291.81	0.54834	12.057	0.082937	225.14	225.58	1.0899	0.90319	1.3999	535.81	-0.067038	0.00021085	0.083863	0.0089386	0.26118	3.8288	388.46	409.04	1.7185	0.81686	0.99276	145.36	27.151	1.1435e-05	0.013206
292.20	0.55510	12.043	0.083033	225.68	226.13	1.0917	0.90372	1.4013	534.00	-0.064361	0.00020983	0.083694	0.0088849	0.26439	3.7823	388.67	409.25	1.7184	0.81808	0.99506	145.30	27.051	1.1450e-05	0.013244
292.59	0.56187	12.029	0.083130	226.22	226.68	1.0936	0.90425	1.4028	532.20	-0.061682	0.00020881	0.083526	0.0088318	0.26760	3.7370	388.87	409.45	1.7183	0.81929	0.99734	145.24	26.953	1.1466e-05	0.013281
292.98	0.56863	12.016	0.083225	226.76	227.22	1.0954	0.90477	1.4042	530.41	-0.059001	0.00020782	0.083359	0.0087792	0.27081	3.6926	389.08	409.66	1.7181	0.82049	0.99963	145.18	26.856	1.1481e-05	0.013318
293.36	0.57540	12.002	0.083321	227.29	227.76	1.0972	0.90529	1.4056	528.65	-0.056319	0.00020683	0.083194	0.0087271	0.27403	3.6493	389.28	409.86	1.7180	0.82168	1.0019	145.12	26.761	1.1497e-05	0.013355
293.74	0.58216	11.988	0.083416	227.82	228.29	1.0990	0.90580	1.4071	526.89	-0.053634	0.00020586	0.083031	0.0086756	0.27724	3.6069	389.48	410.06	1.7178	0.82286	1.0042	145.05	26.668	1.1512e-05	0.013391
294.11	0.58893	11.975	0.083510	228.34	228.82	1.1008	0.90631	1.4085	525.16	-0.050948	0.00020490	0.082869	0.0086245	0.28046	3.5655	389.67	410.25	1.7177	0.82403	1.0064	144.99	26.576	1.1527e-05	0.013428
294.49	0.59569	11.961	0.083604	228.86	229.35	1.1026	0.90682	1.4099	523.43	-0.048259	0.00020396	0.082709	0.0085740	0.28369	3.5250	389.87	410.45	1.7175	0.82520	1.0087	144.93	26.486	1.1542e-05	0.013464
294.86	0.60246	11.948	0.083698	229.38	229.87	1.1043	0.90733	1.4114	521.72	-0.045568	0.00020302	0.082550	0.0085240	0.28691	3.4854	390.06	410.64	1.7174	0.82635	1.0109	144.87	26.397	1.1557e-05	0.013500
295.22	0.60922	11.934	0.083792	229.89	230.39	1.1061	0.90783	1.4128	520.03	-0.042875	0.00020210	0.082392	0.0084744	0.29014	3.4466	390.25	410.83	1.7173	0.82750	1.0132	144.80	26.310	1.1572e-05	0.013535
295.59	0.61599	11.921	0.083885	230.40	230.90	1.1078	0.90832	1.4142	518.35	-0.040178	0.00020119	0.082236	0.0084253	0.29337	3.4086	390.44	411.02	1.7171	0.82864	1.0154	144.74	26.224	1.1587e-05	0.013571
295.95	0.62275	11.908	0.083977	230.90	231.41	1.1095	0.90882	1.4157	516.68	-0.037479	0.00020030	0.082081	0.0083767	0.29661	3.3715	390.63	411.21	1.7170	0.82977	1.0177	144.67	26.139	1.1602e-05	0.013606
296.30	0.62952	11.895	0.084070	231.40	231.92	1.1112	0.90931	1.4171	515.03	-0.034777	0.00019941	0.081928	0.0083286	0.29984	3.3351	390.81	411.39	1.7169	0.83090	1.0199	144.61	26.056	1.1616e-05	0.013641
296.66	0.63628	11.882	0.084162	231.90	232.42	1.1129	0.90980	1.4185	513.39	-0.032072	0.00019853	0.081775	0.0082809	0.30308	3.2994	391.00	411.57	1.7168	0.83202	1.0221	144.54	25.974	1.1631e-05	0.013676
297.01	0.64305	11.869	0.084253	232.39	232.92	1.1145	0.91028	1.4199	511.76	-0.029364	0.00019767	0.081624	0.0082336	0.30633	3.2645	391.18	411.75	1.7166	0.83312	1.0243	144.48	25.893	1.1645e-05	0.013711
297.36	0.64981	11.856	0.084345	232.88	233.42	1.1162	0.91077	1.4213	510.14	-0.026652	0.00019681	0.081475	0.0081867	0.30957	3.2302	391.36	411.93	1.7165	0.83423	1.0266	144.41	25.814	1.1660e-05	0.013746
297.70	0.65658	11.843	0.084436	233.37	233.91	1.1178	0.91124	1.4228	508.54	-0.023937	0.00019597	0.081326	0.0081403	0.31282	3.1967	391.54	412.11	1.7164	0.83532	1.0288	144.34	25.735	1.1674e-05	0.013780
298.05	0.66334	11.831	0.084526	233.85	234.40	1.1194	0.91172	1.4242	506.95	-0.021218	0.00019514	0.081179	0.0080943	0.31608	3.1638	391.71	412.28	1.7163	0.83641	1.0310	144.28	25.658	1.1689e-05	0.013814
